# XDI/1.0 BlueSky/1.10.0 BMM/2023-1.0-py310-tiled
# Beamline.name: BMM (06BM) -- Beamline for Materials Measurement (NIST)
# Beamline.xray_source: NSLS-II three-pole wiggler
# Beamline.collimation: paraboloid mirror, 5 nm Rh on 30 nm Pt
# Beamline.focusing: not in use
# Beamline.harmonic_rejection: flat mirror, Si stripe, pitch = 7.0 mrad relative to beam
# Beamline.software: Bluesky 1.10.0, Ophyd 1.7.0, DataBroker 2.0.0b13, Python 3.10.8, 2023-1.0-py310-tiled
# Detector.I0: 10 cm N2
# Detector.I1: 25 cm N2
# Detector.I2: 25 cm N2
# Element.symbol: Mn
# Element.edge: K
# Element.reference: Mn
# Element.reference_material: Mn metal powder
# Facility.name: NSLS-II
# Facility.energy: 3.0
# Facility.current: 399.3
# Facility.mode: top-off
# Facility.GUP: 123456
# Facility.SAF: 301027
# Facility.cycle: 2023-2
# Mono.name: Si(111)
# Mono.d_spacing: 3.1351860
# Mono.encoder_resolution: 0.0000050 deg/ct
# Mono.angle_offset: 16.0754326 deg
# Mono.scan_mode: pseudo channel cut
# Mono.scan_type: step
# Mono.direction: forward in energy
# Sample.name: Ca2MnAl2BSi4O15(OH)
# Sample.prep: PEG pellet
# Sample.x: 123.848 mm
# Sample.y: 114.690 mm
# Sample.SDD_position: 205.000 mm
# Scan.experimenters: Bruce Ravel
# Scan.edge_energy: 6539.0
# Scan.start_time: 2023-05-08T12:20:23
# Scan.end_time: 2023-05-08T12:28:17
# Scan.transient_id: 75375
# Scan.uid: 6fa8b147-41ee-43d9-89ff-d1cf4f4d21c4
# Scan.plot_hint: ln(I0/It)  --  ln($5/$6)
# Column.1: energy eV
# Column.2: requested_energy eV
# Column.3: measurement_time seconds
# Column.4: xmu 
# Column.5: I0 nA
# Column.6: It nA
# Column.7: Ir nA
# ///////////
# Axinite, CM17413; Luning, Mineral County, Nevada, USA
# -----------
# energy  requested_energy  measurement_time  xmu  I0  It  Ir
  6338.996  6339.000  0.500  2.945575  150.253253  7.899091  0.406307
  6349.011  6349.000  0.500  2.929675  150.492732  8.038476  0.419096
  6359.022  6359.000  0.500  2.913666  150.715594  8.180299  0.432122
  6369.004  6369.000  0.500  2.897488  151.407596  8.351886  0.447180
  6379.003  6379.000  0.500  2.881668  151.626491  8.497329  0.460975
  6389.008  6389.000  0.500  2.866041  151.814587  8.641865  0.474571
  6399.010  6399.000  0.500  2.850695  152.010921  8.786861  0.488809
  6409.018  6409.000  0.500  2.835196  152.196646  8.935015  0.503640
  6419.020  6419.000  0.500  2.819630  152.429119  9.089039  0.518956
  6429.012  6429.000  0.500  2.804000  152.547171  9.239376  0.533915
  6439.014  6439.000  0.500  2.788967  152.681394  9.387569  0.549057
  6449.014  6449.000  0.500  2.773831  150.035028  9.365546  0.554470
  6459.012  6459.000  0.500  2.758963  152.557494  9.665653  0.578952
  6469.012  6469.000  0.500  2.743931  153.176458  9.851855  0.596827
  6479.013  6479.000  0.500  2.729052  153.250737  10.004385  0.612669
  6488.985  6489.000  0.500  2.714534  153.415290  10.161586  0.628440
  6498.989  6499.000  0.500  2.699835  153.498100  10.317626  0.643438
  6508.990  6509.000  0.500  2.685456  153.649166  10.477353  0.656951
  6510.991  6511.000  0.500  2.682626  153.684174  10.509435  0.659136
  6512.987  6513.000  0.500  2.679299  153.706907  10.546022  0.661236
  6514.992  6515.000  0.500  2.676477  153.716360  10.576478  0.663151
  6516.990  6517.000  0.500  2.673800  153.766283  10.608265  0.664889
  6518.991  6519.000  0.500  2.670875  153.805706  10.642067  0.666239
  6520.997  6521.000  0.500  2.667840  153.834621  10.676431  0.666692
  6522.990  6523.000  0.500  2.665386  153.851872  10.703854  0.665871
  6524.999  6525.000  0.500  2.662511  153.860405  10.735274  0.664162
  6526.996  6527.000  0.500  2.659872  153.867721  10.764146  0.661101
  6528.998  6529.000  0.500  2.657334  153.896539  10.793532  0.655665
  6529.285  6529.300  0.500  2.656435  153.896672  10.803241  0.655014
  6529.584  6529.600  0.500  2.656450  153.902400  10.803484  0.653428
  6529.884  6529.900  0.500  2.656088  153.902814  10.807421  0.651648
  6530.183  6530.200  0.500  2.655786  153.904416  10.810800  0.650393
  6530.483  6530.500  0.500  2.655066  153.898365  10.818158  0.649294
  6530.783  6530.800  0.500  2.654669  153.903067  10.822792  0.647541
  6531.086  6531.100  0.500  2.654320  153.902388  10.826524  0.645440
  6531.385  6531.400  0.500  2.653772  153.900306  10.832307  0.643481
  6531.689  6531.700  0.500  2.653520  153.908134  10.835589  0.641104
  6531.987  6532.000  0.500  2.653090  153.912218  10.840538  0.638683
  6532.288  6532.300  0.500  2.652686  153.912372  10.844929  0.635996
  6532.588  6532.600  0.500  2.652171  153.922116  10.851206  0.633035
  6532.891  6532.900  0.500  2.651755  153.912090  10.855009  0.629475
  6533.186  6533.200  0.500  2.651411  153.908999  10.858530  0.626032
  6533.487  6533.500  0.500  2.651151  153.914865  10.861761  0.621676
  6533.789  6533.800  0.500  2.650572  153.902195  10.867154  0.616992
  6534.087  6534.100  0.500  2.650442  153.905610  10.868810  0.611821
  6534.392  6534.400  0.500  2.650166  153.891067  10.870788  0.605618
  6534.692  6534.700  0.500  2.650343  153.897024  10.869280  0.598264
  6534.992  6535.000  0.500  2.650011  153.900452  10.873139  0.590104
  6535.294  6535.300  0.500  2.649647  153.911195  10.877853  0.580392
  6535.598  6535.600  0.500  2.648947  153.903937  10.884956  0.569222
  6535.896  6535.900  0.500  2.648437  153.907419  10.890750  0.555586
  6536.196  6536.200  0.500  2.648316  153.910329  10.892276  0.538784
  6536.493  6536.500  0.500  2.648110  153.911315  10.894593  0.516857
  6536.795  6536.800  0.500  2.647669  153.912632  10.899491  0.488948
  6537.093  6537.100  0.500  2.647456  153.919927  10.902333  0.450567
  6537.393  6537.400  0.500  2.647130  153.924381  10.906205  0.399637
  6537.695  6537.700  0.500  2.646889  153.913722  10.908071  0.336577
  6537.994  6538.000  0.500  2.647144  153.916214  10.905474  0.267449
  6538.296  6538.300  0.500  2.647402  153.908640  10.902116  0.202488
  6538.598  6538.600  0.500  2.648223  153.913552  10.893524  0.154137
  6538.897  6538.900  0.500  2.649371  153.900766  10.880118  0.122731
  6539.197  6539.200  0.500  2.650581  153.896888  10.866685  0.102994
  6539.498  6539.500  0.500  2.651851  153.894831  10.852754  0.089809
  6539.794  6539.800  0.500  2.652281  153.884183  10.847330  0.079990
  6540.095  6540.100  0.500  2.651522  153.877936  10.855131  0.071936
  6540.394  6540.400  0.500  2.649721  153.884980  10.875195  0.065438
  6540.694  6540.700  0.500  2.647985  153.882589  10.893925  0.059958
  6540.995  6541.000  0.500  2.646617  153.883418  10.908893  0.055951
  6541.301  6541.300  0.500  2.645990  153.882941  10.915706  0.053229
  6541.600  6541.600  0.500  2.645242  153.878714  10.923574  0.051797
  6541.902  6541.900  0.500  2.644903  153.875501  10.927045  0.051401
  6542.199  6542.200  0.500  2.645034  153.890888  10.926708  0.051150
  6542.505  6542.500  0.500  2.645069  153.889313  10.926210  0.050856
  6542.799  6542.800  0.500  2.645499  153.898869  10.922188  0.049628
  6543.101  6543.100  0.500  2.646295  153.891966  10.913009  0.047759
  6543.397  6543.400  0.500  2.647638  153.895841  10.898640  0.045284
  6543.699  6543.700  0.500  2.649429  153.884375  10.878333  0.042565
  6543.995  6544.000  0.500  2.652632  153.885215  10.843602  0.040213
  6544.298  6544.300  0.500  2.656658  153.872065  10.799108  0.038262
  6544.598  6544.600  0.500  2.662007  153.874862  10.741688  0.036566
  6544.899  6544.900  0.500  2.669543  153.867995  10.660567  0.035303
  6545.200  6545.200  0.500  2.680150  153.873938  10.548503  0.033884
  6545.498  6545.500  0.500  2.694711  153.881749  10.396548  0.032423
  6545.801  6545.800  0.500  2.712239  153.882781  10.215973  0.030787
  6546.102  6546.100  0.500  2.730452  153.889423  10.032021  0.028841
  6546.399  6546.400  0.500  2.746725  153.890492  9.870165  0.026875
  6546.700  6546.700  0.500  2.759924  153.888946  9.740646  0.024970
  6546.992  6547.000  0.500  2.770115  153.898160  9.642454  0.023073
  6547.297  6547.300  0.500  2.776939  153.881183  9.575830  0.021405
  6547.598  6547.600  0.500  2.780902  153.876258  9.537647  0.019731
  6547.900  6547.900  0.500  2.782847  153.869806  9.518713  0.018258
  6548.196  6548.200  0.500  2.783634  153.862992  9.510804  0.016923
  6548.499  6548.500  0.500  2.785280  153.860177  9.494987  0.015595
  6548.800  6548.800  0.500  2.787042  153.863468  9.478478  0.014425
  6549.098  6549.100  0.500  2.788986  153.860955  9.459913  0.013368
  6549.397  6549.400  0.500  2.792153  153.858300  9.429843  0.012280
  6549.695  6549.700  0.500  2.796221  153.847164  9.390880  0.011272
  6549.998  6550.000  0.500  2.801060  153.845191  9.345428  0.010423
  6550.300  6550.300  0.500  2.806192  153.845535  9.297611  0.009604
  6550.605  6550.600  0.500  2.811055  153.834224  9.251821  0.008739
  6550.903  6550.900  0.500  2.815056  153.841648  9.215325  0.008204
  6551.203  6551.200  0.500  2.818551  153.847605  9.183528  0.007687
  6551.499  6551.500  0.500  2.821717  153.854315  9.154895  0.007149
  6551.802  6551.800  0.500  2.823952  153.834246  9.133272  0.006618
  6552.098  6552.100  0.500  2.825510  153.830694  9.118836  0.006266
  6552.398  6552.400  0.500  2.826338  153.826323  9.111032  0.005849
  6552.700  6552.700  0.500  2.826287  153.821549  9.111216  0.005475
  6553.000  6553.000  0.500  2.824360  153.819095  9.128643  0.005294
  6553.300  6553.300  0.500  2.820323  153.813224  9.165220  0.004887
  6553.600  6553.600  0.500  2.814659  153.810337  9.217105  0.004644
  6553.902  6553.900  0.500  2.807842  153.813115  9.280321  0.004658
  6554.202  6554.200  0.500  2.800508  153.825975  9.349418  0.004377
  6554.505  6554.500  0.500  2.794121  153.829823  9.409559  0.004164
  6554.798  6554.800  0.500  2.789604  153.821031  9.451620  0.004117
  6555.100  6555.100  0.500  2.787362  153.820463  9.472793  0.004075
  6555.399  6555.400  0.500  2.787303  153.824641  9.473611  0.004087
  6555.701  6555.700  0.500  2.788335  153.817302  9.463390  0.004049
  6556.003  6556.000  0.500  2.790280  153.828521  9.445692  0.004163
  6556.299  6556.300  0.500  2.792128  153.818730  9.427647  0.004109
  6556.601  6556.600  0.500  2.792558  153.819153  9.423619  0.004143
  6556.902  6556.900  0.500  2.792151  153.812295  9.427038  0.004355
  6557.206  6557.200  0.500  2.789556  153.806621  9.451189  0.004387
  6557.506  6557.500  0.500  2.786119  153.806544  9.483717  0.004627
  6557.803  6557.800  0.500  2.781662  153.799625  9.525654  0.004689
  6558.099  6558.100  0.500  2.777211  153.802872  9.568346  0.004874
  6558.396  6558.400  0.500  2.772349  153.800829  9.614857  0.005094
  6558.697  6558.700  0.500  2.767234  153.798664  9.664025  0.005233
  6558.999  6559.000  0.500  2.762760  153.809776  9.708065  0.005420
  6559.301  6559.300  0.500  2.758198  153.805622  9.752186  0.005595
  6559.602  6559.600  0.500  2.753929  153.805035  9.793870  0.005737
  6559.904  6559.900  0.500  2.749461  153.805421  9.837756  0.005754
  6560.203  6560.200  0.500  2.745477  153.809316  9.877279  0.005924
  6560.504  6560.500  0.500  2.741925  153.803993  9.912076  0.006070
  6560.799  6560.800  0.500  2.739207  153.800338  9.938822  0.006057
  6561.100  6561.100  0.500  2.736904  153.783066  9.960620  0.006037
  6561.395  6561.400  0.500  2.735662  153.727236  9.969372  0.006074
  6561.696  6561.700  0.500  2.734642  153.594911  9.970962  0.006071
  6562.000  6562.000  0.500  2.733853  153.491365  9.972104  0.006026
  6562.303  6562.300  0.500  2.733513  153.442050  9.972284  0.005828
  6562.604  6562.600  0.500  2.733129  153.579814  9.985077  0.005858
  6562.906  6562.900  0.500  2.732760  153.693363  9.996145  0.005753
  6563.205  6563.200  0.500  2.732345  153.730313  10.002698  0.005814
  6563.505  6563.500  0.500  2.731861  153.742480  10.008335  0.005844
  6563.804  6563.800  0.500  2.731744  153.754931  10.010314  0.005837
  6563.998  6564.000  0.500  2.731889  153.752968  10.008736  0.005809
  6564.997  6564.990  0.500  2.732827  153.802256  10.002559  0.005696
  6566.009  6565.990  0.500  2.733393  153.795091  9.996427  0.005679
  6567.000  6567.010  0.500  2.733585  153.767451  9.992714  0.005595
  6568.051  6568.060  0.500  2.733263  153.772012  9.996234  0.005444
  6569.123  6569.120  0.500  2.731217  153.787090  10.017688  0.005574
  6570.200  6570.200  0.500  2.726642  153.785823  10.063536  0.005516
  6571.299  6571.300  0.500  2.720510  153.802515  10.126542  0.005746
  6572.424  6572.420  0.500  2.714233  153.806970  10.190592  0.005752
  6573.563  6573.560  0.500  2.708659  153.810992  10.247823  0.005846
  6574.711  6574.710  0.500  2.704599  153.823835  10.290374  0.005565
  6575.895  6575.890  0.500  2.703207  153.836917  10.305581  0.005633
  6577.084  6577.080  0.500  2.703896  153.855436  10.299731  0.005561
  6578.301  6578.300  0.500  2.705541  153.870048  10.283779  0.005367
  6579.534  6579.530  0.500  2.707237  153.866138  10.266091  0.005298
  6580.782  6580.780  0.500  2.707935  153.870078  10.259185  0.005135
  6582.053  6582.050  0.500  2.707890  154.038001  10.270850  0.005036
  6583.343  6583.340  0.500  2.706737  154.393118  10.306400  0.004985
  6584.651  6584.650  0.500  2.705250  154.420962  10.323600  0.004801
  6585.991  6585.980  0.500  2.703562  154.184427  10.325202  0.004760
  6587.334  6587.330  0.500  2.701381  154.408755  10.362803  0.004956
  6588.706  6588.700  0.500  2.699260  154.428919  10.386153  0.005067
  6590.084  6590.080  0.500  2.697142  154.436956  10.408718  0.005331
  6591.498  6591.490  0.500  2.695405  154.425222  10.426025  0.005460
  6592.916  6592.910  0.500  2.693894  154.440784  10.442837  0.005730
  6594.357  6594.350  0.500  2.693027  154.452930  10.452720  0.005898
  6595.814  6595.810  0.500  2.691926  154.473165  10.465609  0.006201
  6597.297  6597.290  0.500  2.689035  154.467363  10.495508  0.006416
  6598.800  6598.790  0.500  2.687157  154.481456  10.516202  0.006533
  6600.316  6600.310  0.500  2.686373  154.488605  10.524939  0.006729
  6601.858  6601.850  0.500  2.685987  154.491426  10.529197  0.006771
  6603.416  6603.410  0.500  2.685903  154.188436  10.509424  0.006745
  6604.986  6604.980  0.500  2.685842  154.495264  10.530976  0.006646
  6606.589  6606.580  0.500  2.685406  154.518076  10.537125  0.006364
  6608.199  6608.190  0.500  2.684706  154.537894  10.545857  0.006317
  6609.838  6609.830  0.500  2.683482  154.557628  10.560128  0.006262
  6611.487  6611.480  0.500  2.681416  154.576862  10.583284  0.006161
  6613.161  6613.150  0.500  2.678682  154.566438  10.611538  0.005841
  6614.849  6614.840  0.500  2.674941  154.562834  10.651065  0.005807
  6616.559  6616.550  0.500  2.670244  154.582381  10.702559  0.005763
  6618.287  6618.280  0.500  2.665151  154.573083  10.756559  0.005764
  6620.035  6620.030  0.500  2.660499  154.539552  10.804378  0.005819
  6621.798  6621.790  0.500  2.655268  154.541160  10.861158  0.005860
  6623.587  6623.580  0.500  2.650952  154.557728  10.909303  0.005927
  6625.389  6625.380  0.500  2.647855  154.581582  10.944832  0.006161
  6627.220  6627.210  0.500  2.644963  154.586057  10.976847  0.006240
  6629.059  6629.050  0.500  2.642618  154.509536  10.997168  0.006346
  6630.917  6630.910  0.500  2.639288  154.587504  11.039419  0.006483
  6632.795  6632.790  0.500  2.636038  154.599750  11.076233  0.006586
  6634.703  6634.690  0.500  2.632679  154.615820  11.114657  0.006598
  6636.617  6636.610  0.500  2.629736  154.627355  11.148246  0.006532
  6638.563  6638.550  0.500  2.627304  154.621014  11.174933  0.006434
  6640.522  6640.510  0.500  2.625355  154.618982  11.196581  0.006371
  6642.487  6642.480  0.500  2.623387  154.629547  11.219404  0.006369
  6644.489  6644.480  0.500  2.621742  154.626850  11.237679  0.006485
  6646.501  6646.490  0.500  2.620074  154.631260  11.256767  0.006431
  6648.525  6648.520  0.500  2.618421  154.625825  11.274990  0.006603
  6650.589  6650.580  0.500  2.617215  154.630053  11.288912  0.006911
  6652.663  6652.650  0.500  2.615557  154.625341  11.307294  0.007019
  6654.750  6654.740  0.500  2.612691  154.633252  11.340329  0.007208
  6656.862  6656.850  0.500  2.608986  154.621891  11.381589  0.007348
  6658.991  6658.980  0.500  2.605493  154.623123  11.421507  0.007458
  6661.128  6661.120  0.500  2.602219  154.620219  11.458737  0.007625
  6663.298  6663.290  0.500  2.599305  154.618240  11.492033  0.007575
  6665.490  6665.480  0.500  2.596610  154.637723  11.524503  0.007629
  6667.685  6667.680  0.500  2.593118  154.624479  11.563826  0.007475
  6669.905  6669.900  0.500  2.589849  154.621700  11.601478  0.007372
  6672.158  6672.150  0.500  2.586736  154.598029  11.635864  0.007321
  6674.416  6674.410  0.500  2.583549  154.589700  11.672382  0.007234
  6676.696  6676.690  0.500  2.580592  154.580230  11.706229  0.007138
  6678.995  6678.990  0.500  2.577940  154.585713  11.737728  0.007180
  6681.317  6681.310  0.500  2.575108  154.603548  11.772379  0.007178
  6683.662  6683.650  0.500  2.572294  154.609878  11.806041  0.007244
  6686.006  6686.000  0.500  2.569200  154.599988  11.841865  0.007190
  6688.383  6688.380  0.500  2.565940  154.589276  11.879708  0.007221
  6690.782  6690.770  0.500  2.562735  154.579485  11.917084  0.007465
  6693.198  6693.190  0.500  2.559233  154.550203  11.956635  0.007525
  6695.629  6695.620  0.500  2.555689  154.547936  11.998901  0.007853
  6698.081  6698.070  0.500  2.552579  154.535555  12.035317  0.008012
  6700.560  6700.550  0.500  2.548896  154.525236  12.078910  0.008172
  6703.051  6703.040  0.500  2.545437  154.513831  12.119875  0.008343
  6705.555  6705.550  0.500  2.541608  154.468544  12.162804  0.008414
  6708.078  6708.070  0.500  2.537893  154.467446  12.207992  0.008579
  6710.633  6710.620  0.500  2.534097  154.456734  12.253564  0.008664
  6713.198  6713.190  0.500  2.530337  154.442830  12.298617  0.008855
  6715.779  6715.770  0.500  2.526414  154.433578  12.346226  0.008852
  6718.392  6718.380  0.500  2.522550  154.407180  12.391906  0.008803
  6721.011  6721.000  0.500  2.518767  154.389880  12.437475  0.008877
  6723.660  6723.650  0.500  2.515293  154.391884  12.480920  0.008923
  6726.320  6726.310  0.500  2.511332  154.390738  12.530359  0.008991
  6728.995  6728.990  0.500  2.507515  154.372967  12.576838  0.008994
  6731.700  6731.690  0.500  2.503798  154.347790  12.621606  0.009121
  6734.422  6734.410  0.500  2.500341  154.322888  12.663279  0.009072
  6737.159  6737.150  0.500  2.496912  154.282570  12.703448  0.009010
  6739.905  6739.900  0.500  2.493447  154.268500  12.746387  0.009042
  6742.689  6742.680  0.500  2.489855  154.217330  12.788003  0.009167
  6745.487  6745.470  0.500  2.486310  154.168133  12.829324  0.009241
  6748.303  6748.290  0.500  2.482757  154.145483  12.873102  0.009416
  6751.131  6751.120  0.500  2.479185  154.121331  12.917143  0.009554
  6753.977  6753.970  0.500  2.475520  154.112087  12.963787  0.009665
  6756.862  6756.850  0.500  2.471831  154.082289  13.009184  0.009786
  6759.751  6759.740  0.500  2.467939  154.048325  13.057044  0.009860
  6762.660  6762.650  0.500  2.464153  154.015543  13.103780  0.009864
  6765.580  6765.570  0.500  2.460803  153.979780  13.144701  0.009990
  6768.528  6768.520  0.500  2.456821  153.955409  13.195057  0.010000
  6771.497  6771.490  0.500  2.453192  153.926723  13.240562  0.010101
  6774.481  6774.470  0.500  2.449403  153.915107  13.289816  0.010353
  6777.497  6777.480  0.500  2.445526  153.873735  13.337858  0.010490
  6780.526  6780.500  0.500  2.441583  153.855343  13.388952  0.010641
  6783.564  6783.550  0.500  2.437775  153.826487  13.437511  0.010936
  6786.624  6786.610  0.500  2.433411  153.816262  13.495386  0.010971
  6789.701  6789.690  0.500  2.429146  153.811429  13.552640  0.011265
  6792.806  6792.790  0.500  2.424988  153.738328  13.602644  0.011430
  6795.926  6795.910  0.500  2.420974  150.908584  13.405968  0.011295
  6799.062  6799.050  0.500  2.416792  153.233569  13.669563  0.011796
  6802.225  6802.200  0.500  2.412677  153.354837  13.736786  0.011771
  6805.406  6805.380  0.500  2.408474  153.384507  13.797319  0.011794
  6808.584  6808.570  0.500  2.404589  153.284702  13.842011  0.011950
  6811.818  6811.790  0.500  2.400154  142.828755  12.955142  0.011146
  6815.033  6815.020  0.500  2.396262  152.982785  13.930261  0.011854
  6818.289  6818.270  0.500  2.392125  153.125460  14.001056  0.012028
  6821.568  6821.550  0.500  2.387659  152.812179  14.034946  0.012191
  6824.850  6824.840  0.500  2.383669  151.855663  14.002864  0.012079
  6828.163  6828.150  0.500  2.379552  152.795962  14.147694  0.012333
  6831.483  6831.470  0.500  2.375502  152.836732  14.208896  0.012482
  6834.843  6834.820  0.500  2.371137  152.822646  14.269738  0.012587
  6838.201  6838.190  0.500  2.366679  152.539971  14.306982  0.012821
  6841.583  6841.570  0.500  2.362238  149.724032  14.105378  0.012488
  6844.999  6844.980  0.500  2.358132  152.180989  14.395825  0.012978
  6848.409  6848.400  0.500  2.353903  152.275976  14.465868  0.013154
  6851.852  6851.850  0.500  2.349467  152.263066  14.528949  0.013425
  6855.309  6855.310  0.500  2.344990  152.252302  14.593096  0.013491
  6858.802  6858.790  0.500  2.340610  152.249149  14.656850  0.013688
  6862.283  6862.290  0.500  2.336381  152.058429  14.700537  0.013890
  6865.822  6865.810  0.500  2.331919  152.203280  14.780338  0.013998
  6869.370  6869.350  0.500  2.327830  152.181000  14.838725  0.014191
  6872.880  6872.900  0.500  2.325645  152.136950  14.866887  0.014473
  6876.498  6876.480  0.500  2.319380  152.131556  14.959780  0.014643
  6880.104  6880.080  0.500  2.315007  152.086344  15.020879  0.015073
  6883.700  6883.690  0.500  2.310210  152.034833  15.088001  0.015146
  6887.337  6887.320  0.500  2.305922  151.987287  15.148104  0.015293
  6890.995  6890.980  0.500  2.301981  151.964239  15.205611  0.015382
  6894.665  6894.650  0.500  2.297377  151.917486  15.271074  0.015476
  6898.351  6898.340  0.500  2.292883  151.855205  15.333565  0.015718
  6902.062  6902.050  0.500  2.288198  151.795964  15.399563  0.015901
  6905.794  6905.780  0.500  2.283750  151.707208  15.459164  0.015998
  6909.535  6909.520  0.500  2.279289  151.598601  15.517166  0.016152
  6913.307  6913.290  0.500  2.274630  151.442106  15.573536  0.016267
  6917.089  6917.080  0.500  2.270416  151.354618  15.630279  0.016566
  6920.897  6920.880  0.500  2.265653  151.205213  15.689391  0.016600
  6924.724  6924.710  0.500  2.261215  151.112083  15.749473  0.016897
  6928.562  6928.550  0.500  2.256810  151.033553  15.810775  0.017026
  6932.422  6932.410  0.500  2.251914  150.942994  15.878856  0.017116
  6936.309  6936.290  0.500  2.247175  150.849084  15.944353  0.017241
  6940.201  6940.190  0.500  2.242438  150.780726  16.012807  0.017575
  6944.128  6944.110  0.500  2.237470  150.666015  16.080306  0.017821
  6948.065  6948.050  0.500  2.232808  150.587459  16.147023  0.017892
  6952.024  6952.010  0.500  2.228053  150.542894  16.219193  0.018254
  6955.969  6955.980  0.500  2.223427  150.499002  16.289635  0.018351
  6959.994  6959.980  0.500  2.218654  150.404329  16.357283  0.018652
  6964.008  6963.990  0.500  2.213992  150.340436  16.426734  0.018846
  6968.048  6968.030  0.500  2.209726  150.301787  16.492726  0.019080
  6972.096  6972.080  0.500  2.204782  150.214793  16.564862  0.019474
  6976.151  6976.150  0.500  2.200106  150.120739  16.632090  0.019658
  6980.247  6980.240  0.500  2.195097  149.995060  16.701618  0.019977
  6984.355  6984.350  0.500  2.190515  149.891288  16.766703  0.020190
  6988.485  6988.480  0.500  2.185664  149.776412  16.835328  0.020534
  6992.631  6992.630  0.500  2.181101  149.690223  16.902594  0.020564
  6996.790  6996.790  0.500  2.176328  149.596255  16.972807  0.020851
  7000.977  7000.980  0.500  2.171418  149.473274  17.042325  0.021078
  7005.182  7005.180  0.500  2.166942  149.385734  17.108744  0.021334
  7009.417  7009.410  0.500  2.162185  149.283333  17.178547  0.021465
  7013.661  7013.650  0.500  2.157403  149.183696  17.249374  0.021849
  7017.921  7017.910  0.500  2.152512  149.058767  17.319417  0.022057
  7022.200  7022.190  0.500  2.147785  148.968052  17.390902  0.022180
  7026.502  7026.490  0.500  2.142964  148.861867  17.462486  0.022548
  7030.823  7030.810  0.500  2.137908  148.763984  17.539460  0.022700
  7035.159  7035.150  0.500  2.132878  148.592280  17.607552  0.023114
  7039.514  7039.510  0.500  2.127716  148.491880  17.686719  0.023333
  7043.902  7043.890  0.500  2.123004  148.400853  17.759367  0.023573
  7048.295  7048.280  0.500  2.118117  148.273381  17.831041  0.023937
  7052.713  7052.700  0.500  2.113253  148.130444  17.900700  0.024047
  7057.145  7057.130  0.500  2.108494  148.020886  17.972798  0.024414
  7061.598  7061.580  0.500  2.103498  147.910840  18.049381  0.024678
  7066.080  7066.050  0.500  2.098539  147.736327  18.117713  0.025143
  7070.536  7070.540  0.500  2.093485  146.968495  18.114870  0.025265
  7075.060  7075.050  0.500  2.088794  146.472270  18.138596  0.025448
  7079.592  7079.580  0.500  2.083879  147.335026  18.335336  0.025857
  7084.159  7084.130  0.500  2.079080  147.070488  18.390466  0.026337
  7088.692  7088.700  0.500  2.074263  147.087025  18.481343  0.026501
  7093.311  7093.280  0.500  2.069457  146.965951  18.555091  0.027013
  7097.871  7097.890  0.500  2.064918  147.233354  18.673408  0.027402
  7102.542  7102.510  0.500  2.060342  147.201936  18.755047  0.027604
  7107.145  7107.160  0.500  2.056057  147.067325  18.818362  0.027946
  7111.805  7111.820  0.500  2.058295  146.820319  18.744770  0.028078
  7116.504  7116.500  0.500  2.055444  146.571643  18.766448  0.028133
  7121.204  7121.200  0.500  2.195637  146.296607  16.281007  0.024483
  7125.907  7125.920  0.500  2.302152  145.997581  14.606083  0.022144
  7130.696  7130.660  0.500  2.278865  145.601450  14.909646  0.022705
  7135.393  7135.410  0.500  2.214001  145.383513  15.884983  0.024325
  7140.181  7140.190  0.500  2.208585  145.288057  15.960768  0.024544
  7144.971  7144.990  0.500  2.198426  145.184947  16.112287  0.025174
  7149.790  7149.800  0.500  2.175310  145.088802  16.478156  0.025914
  7154.611  7154.630  0.500  2.176524  144.974778  16.445228  0.025992
  7159.480  7159.490  0.500  2.173792  144.827047  16.473422  0.026316
  7164.388  7164.360  0.500  2.169574  144.630712  16.520630  0.026599
  7169.232  7169.250  0.500  2.167794  144.419049  16.525832  0.026892
  7174.142  7174.160  0.500  2.171155  144.240400  16.450017  0.026955
  7179.069  7179.090  0.500  2.172177  144.116879  16.419145  0.027082
  7184.010  7184.030  0.500  2.172266  143.919158  16.395149  0.027202
  7188.984  7189.000  0.500  2.166094  143.763575  16.478825  0.027601
  7193.988  7193.990  0.500  2.151578  143.429126  16.680880  0.028258
  7199.007  7198.990  0.500  2.139828  143.326201  16.865920  0.028626
  7204.004  7204.020  0.500  2.133934  143.138195  16.943366  0.029058
  7209.044  7209.060  0.500  2.125795  142.930459  17.057046  0.029561
  7214.106  7214.120  0.500  2.119700  142.724434  17.136586  0.030117
  7219.181  7219.200  0.500  2.116568  142.535990  17.167638  0.030289
  7224.310  7224.300  0.500  2.114443  142.308641  17.176730  0.030489
  7229.405  7229.420  0.500  2.109966  142.293446  17.251958  0.031043
  7234.543  7234.560  0.500  2.104015  142.090857  17.330215  0.031270
  7239.695  7239.720  0.500  2.098605  141.852575  17.395009  0.031630
  7244.882  7244.900  0.500  2.093141  139.287137  17.173996  0.031608
  7250.069  7250.090  0.500  2.088167  141.429862  17.525144  0.032488
  7255.293  7255.310  0.500  2.083610  141.098857  17.563997  0.032666
  7260.521  7260.540  0.500  2.079166  140.892269  17.616386  0.033114
  7265.772  7265.790  0.500  2.073887  139.674053  17.556500  0.033277
  7271.041  7271.060  0.500  2.068474  141.180298  17.842153  0.034304
  7276.328  7276.350  0.500  2.062965  141.133755  17.934798  0.034606
  7281.637  7281.660  0.500  2.056842  140.944465  18.020750  0.035020
  7286.978  7286.990  0.500  2.050157  140.624520  18.100450  0.035450
  7292.317  7292.340  0.500  2.043348  140.551017  18.214590  0.035904
  7297.691  7297.710  0.500  2.037103  140.366802  18.304662  0.036421
  7303.068  7303.090  0.500  2.030893  140.357025  18.417401  0.037066
  7308.474  7308.500  0.500  2.025141  140.135948  18.494474  0.037465
  7313.900  7313.920  0.500  2.019862  139.939370  18.566279  0.037819
  7319.351  7319.370  0.500  2.014877  139.758179  18.634917  0.038390
  7324.814  7324.830  0.500  2.009521  139.568573  18.709565  0.038733
  7330.288  7330.310  0.500  2.004287  139.391687  18.783915  0.039390
  7335.793  7335.810  0.500  1.998799  139.222583  18.864376  0.039964
  7341.314  7341.330  0.500  1.993068  138.924372  18.932150  0.040308
  7346.860  7346.870  0.500  1.987732  138.804441  19.017007  0.040858
  7352.389  7352.420  0.500  1.982215  138.617551  19.096476  0.041432
  7357.984  7358.000  0.500  1.976710  138.445516  19.178050  0.041939
  7363.606  7363.600  0.500  1.970897  138.241022  19.261366  0.042442
  7369.231  7369.210  0.500  1.964768  138.081900  19.357477  0.042942
  7374.834  7374.850  0.500  1.959096  137.869084  19.437585  0.043631
  7380.530  7380.500  0.500  1.953172  137.662052  19.523705  0.044145
  7386.158  7386.170  0.500  1.947956  137.475528  19.599223  0.044846
  7391.858  7391.860  0.500  1.942694  137.307531  19.678542  0.045299
