# XDI/1.0 BlueSky/1.5.3
# Beamline.name: 6BM
# Beamline.xray_source: NSLS-II three-pole wiggler
# Beamline.collimation: paraboloid mirror, 5 nm Rh on 30 nm Pt
# Beamline.focusing: not in use
# Beamline.harmonic_rejection: flat mirror, Si stripe, pitch = 7.0 mrad relative to beam
# Detector.i0: 10 cm N2
# Detector.i1: 25 cm N2
# Detector.i2: 25 cm N2
# Element.symbol: Mn
# Element.edge: K
# Facility.name: NSLS-II
# Facility.energy: 3.0
# Facility.current: 399.8
# Facility.mode: top-off
# Facility.gup: 305081
# Facility.saf: 305123
# Mono.name: Si(111)
# Mono.d_spacing: 3.1353241
# Mono.encoder_resolution: 0.0000050 deg/ct
# Mono.angle_offset: 16.0581090 deg
# Mono.scan_mode: fixed exit
# Mono.scan_type: step
# Mono.direction: forward in energy
# Sample.name: Mn9Al6Si5O20(OH)16
# Sample.prep: Powder in polyethylene glycol pellet
# Sample.x_position: -120.140 mm
# Sample.y_position: 112.312 mm
# Scan.experimenters: Neil Hyatt, Martin Stennett, Lucy Mottram
# Scan.edge_energy: 6539.0
# Scan.start_time: 2019-11-11T17:15:46
# Scan.end_time: 2019-11-12T03:18:48
# Scan.transient_id: 17905
# Scan.uid: 9c8bfa9d-e248-4b07-a703-e2380b455f0d
# Scan.plot_hint: ln(I0/It)  --  ln($5/$6)
# Scan.sequence: merge of 3 scans
# Column.1: energy eV
# Column.2: requested_energy eV
# Column.3: measurement_time seconds
# Column.4: mutrans
# Column.5: i0
# Column.6: itrans
# Column.7: irefer
# /////
#  Harstigen Mine, Persberg, Sweden
# -----
# energy   requested_energy   measurement_time   mutrans   i0   itrans   irefer
6338.998000 6339.000000 0.500000 2.048874 89.630455 11.551667 2.650540
6349.015000 6349.000000 0.500000 2.036681 89.951590 11.735446 2.711698
6359.012000 6359.000000 0.500000 2.024448 90.107954 11.900386 2.769296
6369.016000 6369.000000 0.500000 2.012417 90.268414 12.065885 2.827020
6379.021000 6379.000000 0.500000 2.000270 90.448343 12.237690 2.887011
6389.013000 6389.000000 0.500000 1.988352 90.601866 12.405349 2.946609
6399.015000 6399.000000 0.500000 1.976524 90.751068 12.573689 3.006915
6409.018000 6409.000000 0.500000 1.964743 90.891382 12.742374 3.067355
6419.014000 6419.000000 0.500000 1.952955 91.166862 12.932527 3.134474
6429.013000 6429.000000 0.500000 1.941235 91.307278 13.105168 3.196963
6439.014000 6439.000000 0.500000 1.929519 91.427146 13.276987 3.259315
6449.011000 6449.000000 0.500000 1.918208 91.386990 13.422133 3.317304
6459.009000 6459.000000 0.500000 1.906755 91.366377 13.573620 3.376680
6469.004000 6469.000000 0.500000 1.895408 91.773044 13.789545 3.451624
6479.006000 6479.000000 0.500000 1.883990 91.932162 13.972123 3.519969
6489.001000 6489.000000 0.500000 1.872698 92.094640 14.155694 3.588159
6499.001000 6499.000000 0.500000 1.861540 92.242171 14.337455 3.655839
6508.911000 6509.000000 0.500000 1.850461 92.425141 14.525142 3.724357
6510.993000 6511.000000 0.500000 1.848303 92.436511 14.559132 3.737319
6512.988000 6513.000000 0.500000 1.846203 92.453552 14.592449 3.749867
6515.001000 6515.000000 0.500000 1.844098 92.477769 14.627118 3.762749
6516.989000 6517.000000 0.500000 1.841904 92.498155 14.662368 3.774497
6518.988000 6519.000000 0.500000 1.839776 92.527358 14.698155 3.787501
6521.361000 6521.000000 0.500000 1.837597 92.576244 14.741967 3.802235
6523.082000 6523.000000 0.500000 1.835461 92.722288 14.793782 3.818283
6524.979000 6525.000000 0.500000 1.833167 92.745984 14.826601 3.828113
6526.982000 6527.000000 0.500000 1.831409 92.753039 14.857641 3.836974
6528.983000 6529.000000 0.500000 1.829357 92.783036 14.893070 3.845767
6529.085000 6529.100000 0.500000 1.829338 92.788483 14.894325 3.845937
6529.185000 6529.200000 0.500000 1.829214 92.785485 14.895688 3.846504
6529.289000 6529.300000 0.500000 1.829108 92.774849 14.895087 3.846244
6529.402000 6529.400000 0.500000 1.829000 92.772457 14.896892 3.846294
6529.531000 6529.500000 0.500000 1.828925 92.760028 14.896346 3.846017
6529.581000 6529.600000 0.500000 1.828801 92.755735 14.897025 3.846017
6529.682000 6529.700000 0.500000 1.828667 92.751523 14.898346 3.846050
6529.782000 6529.800000 0.500000 1.828707 92.741982 14.896244 3.845527
6529.885000 6529.900000 0.500000 1.828524 92.747407 14.899817 3.846469
6529.981000 6530.000000 0.500000 1.828394 92.740181 14.900545 3.846440
6530.084000 6530.100000 0.500000 1.828327 92.739181 14.901471 3.846065
6530.188000 6530.200000 0.500000 1.828261 92.734784 14.901755 3.846740
6530.286000 6530.300000 0.500000 1.828163 92.738555 14.903763 3.847174
6530.385000 6530.400000 0.500000 1.828028 92.729608 14.904365 3.847106
6530.485000 6530.500000 0.500000 1.827915 92.726134 14.905476 3.846928
6530.584000 6530.600000 0.500000 1.827840 92.744210 14.909458 3.847612
6530.686000 6530.700000 0.500000 1.827691 92.727840 14.909044 3.846640
6530.790000 6530.800000 0.500000 1.827612 92.734309 14.911314 3.847859
6530.886000 6530.900000 0.500000 1.827562 92.723904 14.910340 3.846863
6530.993000 6531.000000 0.500000 1.827435 92.717677 14.911315 3.847350
6531.110000 6531.100000 0.500000 1.827316 92.726537 14.914642 3.847896
6531.203000 6531.200000 0.500000 1.827274 92.735852 14.916683 3.848170
6531.293000 6531.300000 0.500000 1.827117 92.724561 14.917097 3.847559
6531.402000 6531.400000 0.500000 1.827039 92.718699 14.917394 3.847534
6531.492000 6531.500000 0.500000 1.826910 92.719907 14.919349 3.847340
6531.603000 6531.600000 0.500000 1.826831 92.715633 14.919961 3.847084
6531.702000 6531.700000 0.500000 1.826836 92.707314 14.918619 3.846653
6531.803000 6531.800000 0.500000 1.826703 92.708471 14.920740 3.847057
6531.903000 6531.900000 0.500000 1.826643 92.711928 14.922232 3.847124
6532.004000 6532.000000 0.500000 1.826585 92.716273 14.923864 3.846930
6532.099000 6532.100000 0.500000 1.826439 92.721351 14.926723 3.847243
6532.203000 6532.200000 0.500000 1.826354 92.719097 14.927627 3.846290
6532.305000 6532.300000 0.500000 1.826220 92.712968 14.928701 3.846297
6532.402000 6532.400000 0.500000 1.826144 92.708981 14.929163 3.846306
6532.506000 6532.500000 0.500000 1.826008 92.712304 14.931792 3.846189
6532.603000 6532.600000 0.500000 1.825985 92.719076 14.933178 3.845778
6532.702000 6532.700000 0.500000 1.825848 92.710827 14.933854 3.845330
6532.804000 6532.800000 0.500000 1.825803 92.706937 14.933972 3.845077
6532.905000 6532.900000 0.500000 1.825732 92.706556 14.934981 3.844636
6533.002000 6533.000000 0.500000 1.825551 92.705084 14.937410 3.844159
6533.100000 6533.100000 0.500000 1.825476 92.700483 14.937759 3.844441
6533.203000 6533.200000 0.500000 1.825400 92.711237 14.940642 3.843846
6533.300000 6533.300000 0.500000 1.825348 92.717595 14.942431 3.843573
6533.400000 6533.400000 0.500000 1.825332 92.720650 14.943251 3.843155
6533.501000 6533.500000 0.500000 1.825208 92.715699 14.944215 3.842371
6533.601000 6533.600000 0.500000 1.825138 92.714479 14.945090 3.841782
6533.702000 6533.700000 0.500000 1.824924 92.700564 14.946034 3.840357
6533.801000 6533.800000 0.500000 1.824928 92.705982 14.946933 3.840436
6533.898000 6533.900000 0.500000 1.824769 92.707292 14.949438 3.839246
6533.998000 6534.000000 0.500000 1.824701 92.711256 14.951094 3.838476
6534.101000 6534.100000 0.500000 1.824574 92.714438 14.953420 3.837599
6534.196000 6534.200000 0.500000 1.824595 92.715214 14.953315 3.836718
6534.296000 6534.300000 0.500000 1.824415 92.719283 14.956633 3.836379
6534.399000 6534.400000 0.500000 1.824418 92.720256 14.956766 3.834602
6534.494000 6534.500000 0.500000 1.824367 92.707868 14.955516 3.832906
6534.598000 6534.600000 0.500000 1.824261 92.710438 14.957435 3.831381
6534.699000 6534.700000 0.500000 1.824175 92.716041 14.959739 3.830333
6534.799000 6534.800000 0.500000 1.824051 92.702735 14.959361 3.828199
6534.898000 6534.900000 0.500000 1.823989 92.699787 14.959827 3.825878
6535.000000 6535.000000 0.500000 1.823929 92.712003 14.962728 3.824501
6535.101000 6535.100000 0.500000 1.823871 92.711404 14.963526 3.821713
6535.198000 6535.200000 0.500000 1.823795 92.699359 14.962685 3.819287
6535.301000 6535.300000 0.500000 1.823735 92.692028 14.962422 3.816010
6535.401000 6535.400000 0.500000 1.823673 92.692198 14.963393 3.812459
6535.500000 6535.500000 0.500000 1.823628 92.699366 14.965204 3.810019
6535.602000 6535.600000 0.500000 1.823582 92.694938 14.965187 3.806304
6535.703000 6535.700000 0.500000 1.823435 92.699778 14.968117 3.802202
6535.800000 6535.800000 0.500000 1.823414 92.690669 14.967029 3.798612
6535.902000 6535.900000 0.500000 1.823331 92.682821 14.966969 3.792233
6536.003000 6536.000000 0.500000 1.823295 92.700579 14.970413 3.787137
6536.102000 6536.100000 0.500000 1.823196 92.694875 14.970956 3.780761
6536.201000 6536.200000 0.500000 1.823135 92.695031 14.971893 3.773937
6536.303000 6536.300000 0.500000 1.823094 92.729547 14.978121 3.767016
6536.400000 6536.400000 0.500000 1.823033 92.794896 14.989588 3.761118
6536.501000 6536.500000 0.500000 1.822980 92.798232 14.990958 3.751468
6536.603000 6536.600000 0.500000 1.822987 92.794590 14.990259 3.738389
6536.702000 6536.700000 0.500000 1.822978 92.803934 14.991932 3.724443
6536.798000 6536.800000 0.500000 1.822809 92.811830 14.995607 3.710366
6536.902000 6536.900000 0.500000 1.822744 92.804255 14.995465 3.690497
6537.001000 6537.000000 0.500000 1.822750 92.801297 14.994905 3.668675
6537.096000 6537.100000 0.500000 1.822789 92.797793 14.993770 3.644463
6537.200000 6537.200000 0.500000 1.822803 92.796057 14.993237 3.617307
6537.299000 6537.300000 0.500000 1.822807 92.799093 14.993676 3.587586
6537.396000 6537.400000 0.500000 1.822741 92.794920 14.994001 3.556892
6537.497000 6537.500000 0.500000 1.822900 92.789825 14.990794 3.523112
6537.598000 6537.600000 0.500000 1.822825 92.772261 14.989057 3.488530
6537.695000 6537.700000 0.500000 1.822853 92.786543 14.990969 3.456736
6537.797000 6537.800000 0.500000 1.823013 92.786246 14.988527 3.422839
6537.898000 6537.900000 0.500000 1.823122 92.899198 15.005185 3.394549
6537.995000 6538.000000 0.500000 1.823288 92.907822 15.004165 3.366685
6538.097000 6538.100000 0.500000 1.823402 92.900967 15.001292 3.338810
6538.200000 6538.200000 0.500000 1.823597 92.895115 14.997387 3.312561
6538.295000 6538.300000 0.500000 1.823745 92.892081 14.994762 3.289533
6538.398000 6538.400000 0.500000 1.823935 92.908006 14.994466 3.268427
6538.500000 6538.500000 0.500000 1.824087 92.911573 14.992699 3.247954
6538.601000 6538.600000 0.500000 1.824355 92.905260 14.987701 3.229283
6538.700000 6538.700000 0.500000 1.824508 92.899122 14.984410 3.212565
6538.801000 6538.800000 0.500000 1.824571 92.902334 14.983977 3.196721
6538.901000 6538.900000 0.500000 1.824629 92.905598 14.983649 3.182894
6538.999000 6539.000000 0.500000 1.824550 92.899997 14.983914 3.169794
6539.105000 6539.100000 0.500000 1.824654 92.907922 14.983592 3.155807
6539.202000 6539.200000 0.500000 1.824688 92.902015 14.982200 3.144071
6539.303000 6539.300000 0.500000 1.824587 93.021435 15.002809 3.135834
6539.403000 6539.400000 0.500000 1.824522 93.018984 15.003410 3.124536
6539.500000 6539.500000 0.500000 1.824464 93.015694 15.003750 3.113941
6539.599000 6539.600000 0.500000 1.824338 93.008891 15.004509 3.104575
6539.704000 6539.700000 0.500000 1.824171 93.015751 15.008161 3.094374
6539.805000 6539.800000 0.500000 1.824037 93.020730 15.010984 3.085724
6539.902000 6539.900000 0.500000 1.823859 93.006420 15.011307 3.076521
6540.001000 6540.000000 0.500000 1.823589 93.008177 15.015639 3.068477
6540.101000 6540.100000 0.500000 1.823320 92.996433 15.017759 3.060789
6540.199000 6540.200000 0.500000 1.823115 93.016216 15.024045 3.053651
6540.299000 6540.300000 0.500000 1.822934 93.006537 15.025212 3.046360
6540.400000 6540.400000 0.500000 1.822781 92.985585 15.024150 3.038610
6540.499000 6540.500000 0.500000 1.822637 93.003423 15.029194 3.033468
6540.600000 6540.600000 0.500000 1.822555 93.004921 15.030664 3.028084
6540.701000 6540.700000 0.500000 1.822503 93.001092 15.030814 3.023012
6540.796000 6540.800000 0.500000 1.822475 93.013420 15.033178 3.019589
6540.895000 6540.900000 0.500000 1.822448 93.002305 15.031838 3.014734
6541.001000 6541.000000 0.500000 1.822435 93.004600 15.032409 3.011912
6541.099000 6541.100000 0.500000 1.822491 93.000465 15.030914 3.009182
6541.198000 6541.200000 0.500000 1.822462 93.000023 15.031259 3.008106
6541.298000 6541.300000 0.500000 1.822495 92.999773 15.030704 3.006970
6541.394000 6541.400000 0.500000 1.822626 92.995445 15.028094 3.005377
6541.498000 6541.500000 0.500000 1.822694 92.993898 15.026781 3.003811
6541.601000 6541.600000 0.500000 1.822829 92.983448 15.023058 3.002351
6541.698000 6541.700000 0.500000 1.822914 92.994809 15.023625 3.001831
6541.797000 6541.800000 0.500000 1.823070 92.992819 15.021000 2.999606
6541.901000 6541.900000 0.500000 1.823282 92.992701 15.017751 2.997802
6542.001000 6542.000000 0.500000 1.823418 92.983814 15.014308 2.994185
6542.098000 6542.100000 0.500000 1.823720 92.981614 15.009491 2.990695
6542.200000 6542.200000 0.500000 1.824034 92.988614 15.005809 2.986924
6542.301000 6542.300000 0.500000 1.824298 92.986837 15.001558 2.982149
6542.400000 6542.400000 0.500000 1.824665 92.981180 14.995304 2.976155
6542.503000 6542.500000 0.500000 1.825062 92.976098 14.988166 2.970804
6542.602000 6542.600000 0.500000 1.825544 92.965457 14.979435 2.962735
6542.699000 6542.700000 0.500000 1.826104 92.982523 14.974028 2.956303
6542.802000 6542.800000 0.500000 1.826772 92.970020 14.961781 2.948696
6542.905000 6542.900000 0.500000 1.827483 92.980020 14.952503 2.940198
6543.004000 6543.000000 0.500000 1.828440 92.975031 14.937503 2.931299
6543.104000 6543.100000 0.500000 1.829293 92.962975 14.922677 2.921658
6543.204000 6543.200000 0.500000 1.830324 92.963467 14.907455 2.912971
6543.301000 6543.300000 0.500000 1.831499 92.961106 14.889821 2.903413
6543.402000 6543.400000 0.500000 1.832785 92.965680 14.871249 2.893668
6543.503000 6543.500000 0.500000 1.834111 92.957118 14.850005 2.883555
6543.600000 6543.600000 0.500000 1.835523 92.956956 14.829483 2.874170
6543.699000 6543.700000 0.500000 1.836967 92.946367 14.806537 2.864333
6543.800000 6543.800000 0.500000 1.838710 92.954565 14.781424 2.853912
6543.901000 6543.900000 0.500000 1.840496 92.954931 14.755119 2.842723
6543.998000 6544.000000 0.500000 1.842267 92.954156 14.729029 2.832036
6544.101000 6544.100000 0.500000 1.844228 92.957510 14.700324 2.821727
6544.196000 6544.200000 0.500000 1.846185 92.948236 14.671300 2.809801
6544.297000 6544.300000 0.500000 1.848202 92.947544 14.641247 2.798823
6544.400000 6544.400000 0.500000 1.850122 92.946576 14.612213 2.787867
6544.501000 6544.500000 0.500000 1.852142 92.946218 14.582640 2.776361
6544.594000 6544.600000 0.500000 1.854155 92.937556 14.552964 2.764805
6544.699000 6544.700000 0.500000 1.856169 92.941755 14.523747 2.753298
6544.800000 6544.800000 0.500000 1.858128 92.938345 14.494461 2.741584
6544.895000 6544.900000 0.500000 1.860002 92.935772 14.467979 2.730463
6544.996000 6545.000000 0.500000 1.861935 92.939437 14.440001 2.718850
6545.099000 6545.100000 0.500000 1.863841 92.935937 14.411845 2.706547
6545.195000 6545.200000 0.500000 1.865788 92.923234 14.382873 2.695151
6545.297000 6545.300000 0.500000 1.867817 92.922315 14.353013 2.682666
6545.402000 6545.400000 0.500000 1.870024 92.925501 14.321810 2.670054
6545.499000 6545.500000 0.500000 1.872367 92.928082 14.288706 2.656734
6545.600000 6545.600000 0.500000 1.874725 92.920624 14.253662 2.643009
6545.701000 6545.700000 0.500000 1.877310 92.895685 14.212505 2.627604
6545.800000 6545.800000 0.500000 1.880209 92.910349 14.174437 2.613769
6545.899000 6545.900000 0.500000 1.883318 92.906484 14.130261 2.598290
6546.002000 6546.000000 0.500000 1.886755 92.905842 14.080651 2.580757
6546.103000 6546.100000 0.500000 1.890377 92.909964 14.030671 2.563899
6546.200000 6546.200000 0.500000 1.894303 92.892235 13.973463 2.546410
6546.303000 6546.300000 0.500000 1.898477 92.900820 13.915132 2.527181
6546.402000 6546.400000 0.500000 1.902911 92.905602 13.855295 2.508418
6546.500000 6546.500000 0.500000 1.907506 92.905056 13.792332 2.488905
6546.603000 6546.600000 0.500000 1.912479 92.910655 13.724109 2.468329
6546.705000 6546.700000 0.500000 1.917631 92.900371 13.651132 2.447395
6546.801000 6546.800000 0.500000 1.922757 92.887735 13.581823 2.426828
6546.902000 6546.900000 0.500000 1.928057 92.894392 13.509604 2.406799
6547.003000 6547.000000 0.500000 1.933664 92.894819 13.433454 2.384433
6547.099000 6547.100000 0.500000 1.938988 92.888782 13.363098 2.364449
6547.201000 6547.200000 0.500000 1.944547 92.881506 13.285805 2.342504
6547.302000 6547.300000 0.500000 1.950296 92.885808 13.210277 2.321346
6547.400000 6547.400000 0.500000 1.955997 92.891127 13.137886 2.301381
6547.499000 6547.500000 0.500000 1.961654 92.879255 13.061135 2.279531
6547.600000 6547.600000 0.500000 1.967523 92.890827 12.985132 2.258361
6547.696000 6547.700000 0.500000 1.973295 92.893248 12.913872 2.238553
6547.795000 6547.800000 0.500000 1.979034 92.893718 12.838612 2.217978
6547.899000 6547.900000 0.500000 1.985073 92.879613 12.758871 2.196034
6547.999000 6548.000000 0.500000 1.990811 92.873855 12.684099 2.175496
6548.096000 6548.100000 0.500000 1.996578 92.876532 12.612497 2.155503
6548.201000 6548.200000 0.500000 2.002345 92.881581 12.538272 2.134772
6548.296000 6548.300000 0.500000 2.008129 92.873270 12.467679 2.115190
6548.399000 6548.400000 0.500000 2.013607 92.874121 12.398534 2.095533
6548.500000 6548.500000 0.500000 2.019027 92.839207 12.327562 2.076399
6548.598000 6548.600000 0.500000 2.024228 92.866920 12.267495 2.058827
6548.699000 6548.700000 0.500000 2.028973 92.864529 12.209256 2.041388
6548.802000 6548.800000 0.500000 2.033241 92.859517 12.155598 2.024344
6548.903000 6548.900000 0.500000 2.037163 92.858877 12.108287 2.009782
6548.998000 6549.000000 0.500000 2.040584 92.843280 12.066040 1.996372
6549.101000 6549.100000 0.500000 2.043491 92.832307 12.028549 1.982987
6549.204000 6549.200000 0.500000 2.046003 92.847983 11.999935 1.971285
6549.301000 6549.300000 0.500000 2.047895 92.914274 11.986878 1.962674
6549.402000 6549.400000 0.500000 2.049317 92.928197 11.971226 1.953329
6549.505000 6549.500000 0.500000 2.050211 92.929925 11.960739 1.944415
6549.599000 6549.600000 0.500000 2.050756 92.925679 11.953855 1.937438
6549.700000 6549.700000 0.500000 2.050971 92.932920 11.952111 1.930618
6549.805000 6549.800000 0.500000 2.050955 92.929616 11.951920 1.924071
6549.901000 6549.900000 0.500000 2.050624 92.920729 11.954600 1.918331
6550.002000 6550.000000 0.500000 2.050049 92.903301 11.959320 1.913250
6550.105000 6550.100000 0.500000 2.049684 92.909164 11.964508 1.907240
6550.202000 6550.200000 0.500000 2.048901 92.916967 11.974672 1.903792
6550.301000 6550.300000 0.500000 2.048159 92.919165 11.983985 1.898773
6550.403000 6550.400000 0.500000 2.047238 92.890087 11.991417 1.894770
6550.500000 6550.500000 0.500000 2.046173 92.887837 12.003546 1.890855
6550.599000 6550.600000 0.500000 2.045052 92.884678 12.016636 1.887736
6550.704000 6550.700000 0.500000 2.043960 92.892577 12.031571 1.884446
6550.800000 6550.800000 0.500000 2.042582 92.879096 12.045612 1.881081
6550.897000 6550.900000 0.500000 2.041226 92.861808 12.059831 1.878343
6551.000000 6551.000000 0.500000 2.039729 93.001370 12.096437 1.879210
6551.098000 6551.100000 0.500000 2.037909 92.996225 12.117289 1.877291
6551.199000 6551.200000 0.500000 2.036234 92.975861 12.135389 1.874813
6551.296000 6551.300000 0.500000 2.034449 92.975523 12.156741 1.873340
6551.401000 6551.400000 0.500000 2.032637 92.981953 12.180148 1.871814
6551.493000 6551.500000 0.500000 2.030808 92.979923 12.200963 1.869648
6551.598000 6551.600000 0.500000 2.029219 92.969707 12.220014 1.867523
6551.697000 6551.700000 0.500000 2.027399 92.957618 12.240121 1.866324
6551.797000 6551.800000 0.500000 2.025768 92.961922 12.260887 1.864742
6551.896000 6551.900000 0.500000 2.024115 92.957294 12.280773 1.861991
6552.001000 6552.000000 0.500000 2.022486 92.959295 12.301169 1.860990
6552.095000 6552.100000 0.500000 2.021003 92.954157 12.317985 1.858692
6552.196000 6552.200000 0.500000 2.019677 92.940665 12.332800 1.855921
6552.302000 6552.300000 0.500000 2.018182 92.950056 12.352883 1.854565
6552.400000 6552.400000 0.500000 2.016639 93.048279 12.384687 1.855508
6552.499000 6552.500000 0.500000 2.015248 93.036823 12.400297 1.853633
6552.602000 6552.600000 0.500000 2.013699 93.044064 12.421092 1.852046
6552.702000 6552.700000 0.500000 2.012144 93.047200 12.440601 1.851032
6552.797000 6552.800000 0.500000 2.010472 93.038807 12.459890 1.850134
6552.904000 6552.900000 0.500000 2.008502 93.027381 12.483653 1.849603
6553.005000 6553.000000 0.500000 2.006488 93.021377 12.507701 1.850255
6553.101000 6553.100000 0.500000 2.004371 93.031347 12.535376 1.850494
6553.204000 6553.200000 0.500000 2.002089 93.032485 12.564778 1.851286
6553.305000 6553.300000 0.500000 1.999428 93.036563 12.598912 1.852795
6553.401000 6553.400000 0.500000 1.996854 93.025119 12.628850 1.853985
6553.502000 6553.500000 0.500000 1.993945 93.018878 12.665232 1.856440
6553.605000 6553.600000 0.500000 1.991024 93.015665 12.702373 1.859225
6553.703000 6553.700000 0.500000 1.988061 93.017541 12.740319 1.862176
6553.799000 6553.800000 0.500000 1.984946 93.021325 12.779540 1.866152
6553.902000 6553.900000 0.500000 1.981820 93.021955 12.820752 1.869711
6553.997000 6554.000000 0.500000 1.978923 93.018377 12.855896 1.873765
6554.099000 6554.100000 0.500000 1.976026 93.008031 12.892597 1.876904
6554.202000 6554.200000 0.500000 1.973194 93.015324 12.931244 1.881497
6554.299000 6554.300000 0.500000 1.970520 93.012178 12.964272 1.884968
6554.397000 6554.400000 0.500000 1.968096 93.013743 12.996344 1.889026
6554.500000 6554.500000 0.500000 1.965761 93.017758 13.027503 1.892532
6554.598000 6554.600000 0.500000 1.963562 93.023313 13.056494 1.896643
6554.697000 6554.700000 0.500000 1.961533 93.003939 13.080540 1.899885
6554.800000 6554.800000 0.500000 1.959544 92.993338 13.105371 1.903342
6554.900000 6554.900000 0.500000 1.957897 93.017317 13.130182 1.907049
6554.995000 6555.000000 0.500000 1.956346 93.016803 13.149933 1.910468
6555.098000 6555.100000 0.500000 1.954839 93.013972 13.169701 1.913840
6555.194000 6555.200000 0.500000 1.953449 93.002790 13.185921 1.917528
6555.294000 6555.300000 0.500000 1.952281 92.990150 13.199642 1.919982
6555.399000 6555.400000 0.500000 1.951193 92.996457 13.215265 1.924807
6555.500000 6555.500000 0.500000 1.950091 93.007561 13.231317 1.928043
6555.599000 6555.600000 0.500000 1.949211 93.002394 13.242233 1.931754
6555.701000 6555.700000 0.500000 1.948202 93.000538 13.255638 1.935450
6555.802000 6555.800000 0.500000 1.947396 92.998141 13.265847 1.939274
6555.900000 6555.900000 0.500000 1.946657 92.975863 13.272391 1.942941
6556.003000 6556.000000 0.500000 1.945892 92.984265 13.283824 1.946417
6556.104000 6556.100000 0.500000 1.945268 92.986166 13.292369 1.951278
6556.200000 6556.200000 0.500000 1.944726 92.995598 13.300746 1.954581
6556.301000 6556.300000 0.500000 1.944104 92.987629 13.308013 1.958048
6556.404000 6556.400000 0.500000 1.943601 92.994197 13.315654 1.962885
6556.500000 6556.500000 0.500000 1.943188 92.981611 13.319241 1.966332
6556.603000 6556.600000 0.500000 1.942741 92.975340 13.324440 1.969455
6556.705000 6556.700000 0.500000 1.942466 92.967538 13.326982 1.973489
6556.802000 6556.800000 0.500000 1.942290 92.977506 13.330710 1.977423
6556.902000 6556.900000 0.500000 1.942263 92.968555 13.329808 1.980579
6557.005000 6557.000000 0.500000 1.942265 92.972602 13.330370 1.984159
6557.103000 6557.100000 0.500000 1.942304 92.977567 13.330519 1.987528
6557.198000 6557.200000 0.500000 1.942629 92.983733 13.327144 1.989899
6557.303000 6557.300000 0.500000 1.943012 92.973943 13.320579 1.992276
6557.401000 6557.400000 0.500000 1.943500 92.979313 13.314920 1.994286
6557.499000 6557.500000 0.500000 1.944102 92.965644 13.304908 1.995529
6557.602000 6557.600000 0.500000 1.944772 92.973960 13.296966 1.997826
6557.701000 6557.700000 0.500000 1.945551 92.979817 13.287615 1.998776
6557.797000 6557.800000 0.500000 1.946518 92.975711 13.274142 1.999857
6557.902000 6557.900000 0.500000 1.947578 92.969108 13.258826 2.000044
6558.000000 6558.000000 0.500000 1.948751 92.967816 13.243392 2.000305
6558.100000 6558.100000 0.500000 1.949883 92.967679 13.228234 1.999920
6558.197000 6558.200000 0.500000 1.951237 92.962196 13.209750 1.999419
6558.301000 6558.300000 0.500000 1.952698 92.957799 13.189767 1.998852
6558.396000 6558.400000 0.500000 1.954206 92.950308 13.169051 1.996968
6558.498000 6558.500000 0.500000 1.955646 92.968359 13.152575 1.997120
6558.601000 6558.600000 0.500000 1.957344 92.957780 13.128485 1.995404
6558.699000 6558.700000 0.500000 1.958934 92.968702 13.109604 1.993693
6558.797000 6558.800000 0.500000 1.960543 92.956638 13.086749 1.992428
6558.898000 6558.900000 0.500000 1.962186 92.953621 13.065329 1.991111
6558.997000 6559.000000 0.500000 1.963819 92.951016 13.043526 1.989054
6559.093000 6559.100000 0.500000 1.965421 92.956770 13.023541 1.987591
6559.202000 6559.200000 0.500000 1.967184 92.951917 12.999381 1.984947
6559.302000 6559.300000 0.500000 1.968610 92.937510 12.978855 1.982929
6559.399000 6559.400000 0.500000 1.970115 92.936048 12.959273 1.980350
6559.503000 6559.500000 0.500000 1.971422 92.945842 12.943577 1.979974
6559.602000 6559.600000 0.500000 1.972617 92.952325 12.929011 1.977923
6559.698000 6559.700000 0.500000 1.973599 92.947628 12.915839 1.976642
6559.801000 6559.800000 0.500000 1.974726 92.931609 12.899086 1.975006
6559.905000 6559.900000 0.500000 1.975633 92.918748 12.885205 1.973357
6560.001000 6560.000000 0.500000 1.976282 92.907839 12.875702 1.972123
6560.100000 6560.100000 0.500000 1.976886 92.896290 12.866333 1.971297
6560.205000 6560.200000 0.500000 1.977476 92.865162 12.854144 1.970157
6560.301000 6560.300000 0.500000 1.977977 92.841749 12.844560 1.969095
6560.399000 6560.400000 0.500000 1.978201 92.799290 12.835950 1.967520
6560.506000 6560.500000 0.500000 1.978352 92.778682 12.830986 1.966533
6560.602000 6560.600000 0.500000 1.978632 92.769086 12.826189 1.966224
6560.702000 6560.700000 0.500000 1.978681 92.740424 12.821541 1.965569
6560.799000 6560.800000 0.500000 1.978763 92.718398 12.817466 1.964408
6560.901000 6560.900000 0.500000 1.978799 92.701612 12.814673 1.964134
6560.999000 6561.000000 0.500000 1.978846 92.720028 12.816633 1.964532
6561.102000 6561.100000 0.500000 1.978779 92.762221 12.823308 1.964722
6561.202000 6561.200000 0.500000 1.978686 92.803296 12.830181 1.965362
6561.299000 6561.300000 0.500000 1.978699 92.840977 12.835234 1.966102
6561.401000 6561.400000 0.500000 1.978466 92.865331 12.841576 1.966944
6561.497000 6561.500000 0.500000 1.978405 92.882528 12.844729 1.966890
6561.597000 6561.600000 0.500000 1.978264 92.911336 12.850500 1.967934
6561.698000 6561.700000 0.500000 1.978112 92.920909 12.853771 1.967299
6561.798000 6561.800000 0.500000 1.977976 92.911222 12.854148 1.966576
6561.899000 6561.900000 0.500000 1.977704 92.911604 12.857736 1.966867
6561.997000 6562.000000 0.500000 1.977511 92.912459 12.860266 1.967264
6562.098000 6562.100000 0.500000 1.977177 92.906466 12.863754 1.966452
6562.195000 6562.200000 0.500000 1.976862 92.928958 12.870902 1.967780
6562.298000 6562.300000 0.500000 1.976512 92.927608 12.875211 1.967938
6562.399000 6562.400000 0.500000 1.975951 93.047427 12.899178 1.970823
6562.499000 6562.500000 0.500000 1.975475 93.031846 12.903198 1.971135
6562.600000 6562.600000 0.500000 1.974886 93.034342 12.911183 1.972111
6562.698000 6562.700000 0.500000 1.974187 93.038882 12.920630 1.972827
6562.802000 6562.800000 0.500000 1.973497 93.035278 12.929343 1.973227
6562.900000 6562.900000 0.500000 1.972783 93.033653 12.938302 1.973993
6563.001000 6563.000000 0.500000 1.971920 93.033986 12.949385 1.975472
6563.103000 6563.100000 0.500000 1.971279 93.034647 12.957926 1.976225
6563.200000 6563.200000 0.500000 1.970422 93.036514 12.969367 1.977437
6563.300000 6563.300000 0.500000 1.969503 93.049918 12.982864 1.978833
6563.400000 6563.400000 0.500000 1.968707 93.050503 12.993436 1.980124
6563.500000 6563.500000 0.500000 1.967932 93.036653 13.001841 1.981001
6563.601000 6563.600000 0.500000 1.966850 93.025999 13.014041 1.982470
6563.699000 6563.700000 0.500000 1.966021 93.038333 13.026482 1.984397
6563.801000 6563.800000 0.500000 1.965091 93.050348 13.040544 1.985502
6563.897000 6563.900000 0.500000 1.964141 93.037928 13.050672 1.986828
6564.000000 6564.000000 0.500000 1.963157 93.055568 13.066483 1.989538
6564.094000 6564.100000 0.500000 1.962168 93.067767 13.080838 1.990397
6564.201000 6564.200000 0.500000 1.961038 93.065027 13.095427 1.992842
6564.297000 6564.300000 0.500000 1.960021 93.135313 13.118516 1.996481
6564.403000 6564.400000 0.500000 1.958849 93.127980 13.133454 1.998154
6564.495000 6564.500000 0.500000 1.957649 93.130313 13.148526 1.999997
6564.600000 6564.600000 0.500000 1.956470 93.138357 13.165981 2.002615
6564.696000 6564.700000 0.500000 1.955207 93.139749 13.182255 2.004539
6564.800000 6564.800000 0.500000 1.953874 93.126404 13.198124 2.006796
6564.901000 6564.900000 0.500000 1.952463 93.127902 13.217438 2.009553
6565.003000 6565.000000 0.500000 1.951066 93.117857 13.234305 2.011944
6565.099000 6565.100000 0.500000 1.949720 93.130452 13.254045 2.015344
6565.203000 6565.200000 0.500000 1.948296 93.135641 13.274064 2.017537
6565.299000 6565.300000 0.500000 1.946819 93.126625 13.291559 2.019973
6565.406000 6565.400000 0.500000 1.945369 93.189393 13.320925 2.025064
6565.504000 6565.500000 0.500000 1.943951 93.222005 13.344270 2.028639
6565.602000 6565.600000 0.500000 1.942370 93.222377 13.364917 2.031633
6565.701000 6565.700000 0.500000 1.940982 93.231973 13.384935 2.034443
6565.801000 6565.800000 0.500000 1.939611 93.241406 13.404602 2.037711
6565.905000 6565.900000 0.500000 1.938168 93.226386 13.422259 2.039826
6566.003000 6566.000000 0.500000 1.936685 93.222594 13.441123 2.043620
6566.101000 6566.100000 0.500000 1.935323 93.217227 13.458463 2.045736
6566.200000 6566.200000 0.500000 1.934095 93.217720 13.475203 2.048003
6566.300000 6566.300000 0.500000 1.932791 93.228980 13.494647 2.051620
6566.402000 6566.400000 0.500000 1.931579 93.216700 13.508833 2.053434
6566.500000 6566.500000 0.500000 1.930346 93.213521 13.525118 2.055750
6566.601000 6566.600000 0.500000 1.929278 93.202491 13.538196 2.058147
6566.701000 6566.700000 0.500000 1.928183 93.201806 13.552869 2.060237
6566.797000 6566.800000 0.500000 1.927245 93.205130 13.565765 2.062419
6566.897000 6566.900000 0.500000 1.926217 93.216697 13.581158 2.065005
6567.001000 6567.000000 0.500000 1.925164 93.202867 13.593850 2.066909
6567.097000 6567.100000 0.500000 1.924321 93.191474 13.603443 2.068528
6567.197000 6567.200000 0.500000 1.923334 93.184087 13.615638 2.070495
6567.298000 6567.300000 0.500000 1.922461 93.194919 13.629440 2.072826
6567.396000 6567.400000 0.500000 1.921586 93.209673 13.643101 2.075129
6567.500000 6567.500000 0.500000 1.920806 93.202432 13.653006 2.077127
6567.600000 6567.600000 0.500000 1.919853 93.195009 13.665097 2.079239
6567.698000 6567.700000 0.500000 1.918971 93.199145 13.677704 2.081385
6567.803000 6567.800000 0.500000 1.918110 93.182745 13.687259 2.083058
6567.898000 6567.900000 0.500000 1.917156 93.186002 13.700390 2.085303
6568.001000 6568.000000 0.500000 1.916296 93.185893 13.712375 2.087151
6568.103000 6568.100000 0.500000 1.915477 93.197271 13.725523 2.090169
6568.203000 6568.200000 0.500000 1.914628 93.196733 13.737013 2.091422
6568.302000 6568.300000 0.500000 1.913655 93.192693 13.749643 2.093662
6568.402000 6568.400000 0.500000 1.912781 93.184538 13.760528 2.095833
6568.502000 6568.500000 0.500000 1.911810 93.186496 13.774267 2.098418
6568.604000 6568.600000 0.500000 1.910985 93.196673 13.787335 2.100221
6568.702000 6568.700000 0.500000 1.910054 93.194666 13.799670 2.102762
6568.804000 6568.800000 0.500000 1.909237 93.184333 13.809430 2.104899
6568.907000 6568.900000 0.500000 1.908295 94.875794 14.074927 2.145299
6569.000000 6569.000000 0.700000 1.907413 129.870579 19.280638 2.938669
6570.092000 6570.080000 0.710000 1.897987 132.318672 19.830497 3.027006
6571.209000 6571.180000 0.730000 1.890833 136.075043 20.540931 3.138783
6572.285000 6572.290000 0.740000 1.886994 137.921054 20.898416 3.194134
6573.431000 6573.430000 0.750000 1.885273 139.801897 21.220160 3.241329
6574.588000 6574.580000 0.760000 1.884498 141.715913 21.527409 3.282612
6575.767000 6575.760000 0.780000 1.884977 145.462131 22.085979 3.359537
6576.961000 6576.950000 0.790000 1.886490 147.335420 22.336566 3.388417
6578.169000 6578.160000 0.800000 1.888619 149.206993 22.572164 3.413329
6579.395000 6579.390000 0.810000 1.891196 151.092980 22.798842 3.438492
6580.651000 6580.640000 0.830000 1.894505 154.840001 23.286815 3.500967
6581.916000 6581.910000 0.840000 1.899158 156.740020 23.463375 3.516477
6583.209000 6583.200000 0.850000 1.905073 158.594404 23.600899 3.529725
6584.516000 6584.510000 0.860000 1.910436 160.450766 23.749454 3.551811
6585.838000 6585.830000 0.880000 1.913157 164.230851 24.242897 3.632641
6587.189000 6587.180000 0.890000 1.912947 165.851500 24.487138 3.686001
6588.551000 6588.540000 0.900000 1.911726 167.981558 24.831939 3.759268
6589.940000 6589.930000 0.910000 1.912074 169.853866 25.099942 3.822786
6591.339000 6591.330000 0.930000 1.913588 173.645251 25.621411 3.921843
6592.761000 6592.750000 0.940000 1.915327 175.577081 25.861421 3.974736
6594.196000 6594.190000 0.950000 1.917940 177.437572 26.067389 4.023690
6595.659000 6595.650000 0.960000 1.918261 179.327278 26.336470 4.084248
6597.137000 6597.130000 0.980000 1.915190 183.097386 26.972737 4.201437
6598.642000 6598.630000 0.990000 1.910720 184.999809 27.375282 4.279906
6600.148000 6600.140000 1.000000 1.905160 186.896611 27.810046 4.356890
6601.693000 6601.680000 1.010000 1.899880 188.387635 28.180406 4.419044
6603.244000 6603.240000 1.030000 1.896188 192.521024 28.904965 4.532138
6604.818000 6604.810000 1.040000 1.893609 194.454593 29.270793 4.586399
6606.404000 6606.400000 1.050000 1.891592 196.339481 29.614153 4.634483
6608.022000 6608.010000 1.060000 1.889672 198.293894 29.966583 4.683147
6609.657000 6609.650000 1.080000 1.887540 201.999582 30.591635 4.771958
6611.310000 6611.300000 1.090000 1.885432 203.878411 30.941373 4.817543
6612.974000 6612.970000 1.100000 1.883162 205.822850 31.307272 4.868054
6614.660000 6614.650000 1.110000 1.880223 207.683667 31.683299 4.921411
6616.367000 6616.360000 1.130000 1.876976 211.473969 32.366521 5.026421
6618.104000 6618.090000 1.140000 1.873391 213.338290 32.769267 5.092061
6619.842000 6619.830000 1.150000 1.869454 215.181907 33.182809 5.161251
6621.611000 6621.600000 1.160000 1.865378 217.148828 33.622741 5.238020
6623.390000 6623.380000 1.180000 1.861737 220.868589 34.323335 5.358613
6625.183000 6625.180000 1.190000 1.859149 223.049512 34.752124 5.437730
6627.011000 6627.000000 1.200000 1.857656 224.972590 35.104343 5.507550
6628.846000 6628.840000 1.210000 1.856780 226.620897 35.392575 5.567619
6630.711000 6630.700000 1.230000 1.856228 230.634594 36.039350 5.681822
6632.588000 6632.580000 1.240000 1.855254 232.507019 36.367292 5.744072
6634.488000 6634.480000 1.250000 1.853356 234.360675 36.726724 5.808520
6636.410000 6636.400000 1.260000 1.850887 236.269946 37.117622 5.874668
6638.335000 6638.330000 1.280000 1.848607 240.007498 37.790649 5.984556
6640.302000 6640.290000 1.290000 1.846996 241.911650 38.152073 6.046387
6642.266000 6642.260000 1.300000 1.845695 244.179336 38.559999 6.118813
6644.269000 6644.260000 1.310000 1.844312 246.050104 38.909234 6.188193
6646.280000 6646.270000 1.330000 1.842420 249.849392 39.584982 6.311723
6648.306000 6648.300000 1.340000 1.840257 251.799965 39.980329 6.394890
6650.359000 6650.350000 1.350000 1.838194 253.617863 40.352054 6.472857
6652.421000 6652.420000 1.360000 1.836697 255.579036 40.724954 6.550227
6654.518000 6654.510000 1.380000 1.835681 259.470727 41.387003 6.674354
6656.618000 6656.610000 1.390000 1.834559 261.579672 41.770054 6.750889
6658.744000 6658.740000 1.400000 1.832860 263.446324 42.139596 6.822200
6660.898000 6660.890000 1.410000 1.830674 265.410277 42.546969 6.896086
6663.060000 6663.050000 1.430000 1.828474 269.203882 43.249917 7.014434
6665.239000 6665.230000 1.440000 1.826248 271.134996 43.657124 7.082282
6667.453000 6667.440000 1.450000 1.823958 273.061505 44.068367 7.149841
6669.672000 6669.660000 1.460000 1.821615 274.983110 44.482816 7.216002
6671.904000 6671.900000 1.480000 1.819450 278.702351 45.181894 7.331380
6674.174000 6674.160000 1.490000 1.817491 280.705618 45.596177 7.400655
6676.449000 6676.440000 1.500000 1.815744 282.535715 45.973644 7.466827
6678.744000 6678.740000 1.510000 1.813958 284.524554 46.379779 7.540992
6681.054000 6681.050000 1.530000 1.811702 288.305235 47.102413 7.669112
6683.396000 6683.390000 1.540000 1.808640 290.162343 47.551372 7.755577
6685.741000 6685.740000 1.550000 1.804993 292.144154 48.050598 7.853099
6688.122000 6688.120000 1.560000 1.801031 294.036882 48.553954 7.954361
6690.515000 6690.510000 1.580000 1.797051 297.840447 49.378341 8.112492
6692.916000 6692.920000 1.590000 1.793290 299.719100 49.876658 8.219531
6695.348000 6695.350000 1.600000 1.789713 301.700284 50.386240 8.329524
6697.801000 6697.800000 1.610000 1.786270 303.653504 50.887706 8.438956
6700.269000 6700.270000 1.630000 1.783131 307.350828 51.669054 8.594277
6702.761000 6702.760000 1.640000 1.780591 309.277785 52.125201 8.694976
6705.269000 6705.270000 1.650000 1.778718 311.224683 52.551485 8.790522
6707.786000 6707.790000 1.660000 1.777123 313.099573 52.952357 8.879731
6710.339000 6710.340000 1.680000 1.775496 316.936600 53.688700 9.021099
6712.900000 6712.900000 1.690000 1.773188 318.824417 54.133353 9.110689
6715.492000 6715.490000 1.700000 1.770333 320.777312 54.620460 9.205444
6718.086000 6718.090000 1.710000 1.767392 322.661828 55.102997 9.299504
6720.710000 6720.710000 1.730000 1.764646 326.370016 55.889884 9.446393
6723.348000 6723.350000 1.740000 1.762120 328.337267 56.368601 9.538710
6726.011000 6726.010000 1.750000 1.759478 330.218257 56.841586 9.629905
6728.696000 6728.690000 1.760000 1.756436 332.098172 57.339563 9.727043
6731.384000 6731.390000 1.780000 1.753472 335.893824 58.166496 9.878887
6734.104000 6734.110000 1.790000 1.750421 337.722824 58.661903 9.976086
6736.847000 6736.840000 1.800000 1.747373 339.561711 59.161813 10.076973
6739.603000 6739.600000 1.810000 1.744336 341.457077 59.672756 10.180653
6742.378000 6742.370000 1.830000 1.741397 345.116363 60.489809 10.341307
6745.172000 6745.170000 1.840000 1.738776 346.970851 60.974264 10.446676
6747.980000 6747.980000 1.850000 1.736412 348.842249 61.448281 10.553040
6750.814000 6750.810000 1.860000 1.734028 350.632440 61.911159 10.660161
6753.665000 6753.660000 1.880000 1.731231 354.341904 62.741224 10.832185
6756.533000 6756.530000 1.890000 1.728226 356.139960 63.249221 10.946309
6759.422000 6759.420000 1.900000 1.725154 357.868925 63.751693 11.060997
6762.318000 6762.320000 1.910000 1.722411 359.706552 64.255365 11.175444
6765.251000 6765.250000 1.930000 1.719791 363.285939 65.065003 11.342925
6768.194000 6768.200000 1.940000 1.717244 365.171421 65.569292 11.456920
6771.166000 6771.160000 1.950000 1.714466 366.897022 66.062614 11.572865
6774.134000 6774.140000 1.960000 1.711408 368.803408 66.609007 11.696371
6777.152000 6777.150000 1.980000 1.708091 372.628427 67.523640 11.887739
6780.176000 6780.170000 1.990000 1.704710 374.467999 68.087244 12.018280
6783.207000 6783.210000 2.000000 1.701084 376.338618 68.675372 12.155162
6786.266000 6786.270000 2.010000 1.697209 377.996032 69.245781 12.288533
6789.349000 6789.350000 2.030000 1.693396 381.786457 70.207466 12.487438
6792.447000 6792.450000 2.040000 1.689388 380.727231 70.293786 12.532242
6795.560000 6795.560000 2.050000 1.686346 384.345153 71.178294 12.718730
6798.697000 6798.700000 2.060000 1.683192 387.407452 71.971495 12.886908
6801.851000 6801.850000 2.080000 1.680260 391.207879 72.891123 13.076570
6805.037000 6805.030000 2.090000 1.677213 393.102222 73.467932 13.203504
6808.219000 6808.220000 2.100000 1.674182 395.141623 74.072889 13.335262
6811.429000 6811.430000 2.110000 1.670578 372.181321 70.020276 12.627222
6814.660000 6814.660000 2.130000 1.667980 398.838373 75.230506 13.589840
6817.917000 6817.920000 2.140000 1.664691 401.877911 76.053540 13.764799
6821.182000 6821.180000 2.150000 1.660397 390.462938 74.211578 13.456073
6824.480000 6824.470000 2.160000 1.658347 402.916432 76.736238 13.945031
6827.779000 6827.780000 2.180000 1.655234 407.661161 77.880927 14.183982
6831.111000 6831.110000 2.190000 1.652162 409.679226 78.507492 14.332488
6834.452000 6834.450000 2.200000 1.649323 411.425024 79.066119 14.468745
6837.817000 6837.820000 2.210000 1.646279 412.530040 79.519651 14.590110
6841.202000 6841.200000 2.230000 1.643772 407.409190 78.730476 14.481987
6844.602000 6844.600000 2.240000 1.640013 417.418092 80.967991 14.932520
6848.030000 6848.030000 2.250000 1.636627 419.356832 81.619971 15.091099
6851.472000 6851.470000 2.260000 1.633045 420.959082 82.225808 15.242449
6854.929000 6854.930000 2.280000 1.629531 424.427631 83.195355 15.463828
6858.408000 6858.400000 2.290000 1.625987 426.140939 83.827913 15.622174
6861.905000 6861.900000 2.300000 1.622489 427.092150 84.309346 15.753483
6865.427000 6865.420000 2.310000 1.618931 429.037253 84.994826 15.921901
6868.967000 6868.960000 2.330000 1.615781 432.948372 86.040487 16.158759
6872.515000 6872.510000 2.340000 1.612361 434.856592 86.715594 16.325881
6876.095000 6876.090000 2.350000 1.609110 436.633567 87.353354 16.488146
6879.688000 6879.680000 2.360000 1.605815 438.451916 88.006833 16.651913
6883.296000 6883.290000 2.380000 1.602335 442.500192 89.129053 16.904414
6886.921000 6886.920000 2.390000 1.598897 444.455346 89.830746 17.077115
6890.573000 6890.570000 2.400000 1.595471 446.206664 90.494616 17.244048
6894.240000 6894.240000 2.410000 1.592064 447.871355 91.141877 17.406906
6897.932000 6897.930000 2.430000 1.588516 451.602282 92.227901 17.655044
6901.638000 6901.640000 2.440000 1.584861 453.203318 92.893821 17.822764
6905.363000 6905.360000 2.450000 1.581242 455.085928 93.617952 18.002863
6909.113000 6909.110000 2.460000 1.577630 456.433119 94.234866 18.161256
6912.872000 6912.870000 2.480000 1.573886 459.845748 95.295678 18.409445
6916.662000 6916.660000 2.490000 1.570255 461.347976 95.954769 18.580892
6920.464000 6920.460000 2.500000 1.566671 462.903151 96.623738 18.756124
6924.287000 6924.280000 2.510000 1.563102 464.559615 97.316644 18.936597
6928.124000 6928.120000 2.530000 1.559488 468.123152 98.417739 19.198246
6931.982000 6931.980000 2.540000 1.555878 469.692858 99.105005 19.380436
6935.865000 6935.860000 2.550000 1.552321 471.378905 99.815384 19.569006
6939.762000 6939.760000 2.560000 1.548698 472.868124 100.493904 19.751858
6943.683000 6943.680000 2.580000 1.544966 476.468095 101.637601 20.023927
6947.614000 6947.610000 2.590000 1.541441 478.145250 102.355955 20.216871
6951.574000 6951.570000 2.600000 1.537881 480.121112 103.145633 20.427451
6955.541000 6955.540000 2.610000 1.534268 481.525780 103.821523 20.613669
6959.546000 6959.540000 2.630000 1.530694 485.009713 104.947565 20.891728
6963.551000 6963.550000 2.640000 1.527137 487.235967 105.804952 21.118584
6967.584000 6967.580000 2.650000 1.523513 488.646035 106.496640 21.314577
6971.638000 6971.630000 2.660000 1.519839 490.327992 107.256740 21.522516
6975.703000 6975.700000 2.680000 1.516156 493.517879 108.352663 21.798950
6979.790000 6979.790000 2.690000 1.512345 495.254393 109.148757 22.020981
6983.907000 6983.900000 2.700000 1.508627 496.846676 109.907622 22.229464
6988.022000 6988.020000 2.710000 1.504870 498.893536 110.775390 22.462013
6992.175000 6992.170000 2.730000 1.501119 502.248177 111.939568 22.756098
6996.334000 6996.330000 2.740000 1.497461 503.739569 112.683505 22.966589
7000.529000 7000.520000 2.750000 1.493786 505.327253 113.454948 23.182724
7004.723000 7004.720000 2.760000 1.490087 506.777768 114.202095 23.391546
7008.947000 7008.940000 2.780000 1.486446 510.139627 115.379148 23.692602
7013.185000 7013.180000 2.790000 1.482735 511.631401 116.146564 23.907192
7017.445000 7017.440000 2.800000 1.478978 512.986808 116.892854 24.122088
7021.729000 7021.720000 2.810000 1.475141 514.493354 117.687064 24.349098
7026.023000 7026.020000 2.830000 1.471286 517.695056 118.876288 24.656613
7030.347000 7030.340000 2.840000 1.467449 519.019348 119.638945 24.879297
7034.677000 7034.670000 2.850000 1.463695 520.471313 120.424861 25.107127
7039.037000 7039.030000 2.860000 1.459848 521.979836 121.239434 25.345000
7043.404000 7043.400000 2.880000 1.456044 525.096177 122.427708 25.659830
7047.801000 7047.800000 2.890000 1.452239 526.497720 123.222180 25.893378
7052.212000 7052.210000 2.900000 1.448488 527.838080 123.999931 26.125640
7056.642000 7056.640000 2.910000 1.444691 529.244170 124.803554 26.365773
7061.092000 7061.090000 2.930000 1.440798 530.890355 125.679874 26.618642
7065.563000 7065.560000 2.940000 1.437241 534.178019 126.909001 26.951892
7070.057000 7070.050000 2.950000 1.433741 531.868092 126.803509 27.002253
7074.565000 7074.560000 2.960000 1.430092 532.403146 127.395237 27.200135
7079.086000 7079.080000 2.980000 1.426406 540.002409 129.690847 27.762023
7083.638000 7083.630000 2.990000 1.422838 541.164970 130.434548 27.997110
7088.192000 7088.190000 3.000000 1.419440 543.016269 131.326099 28.263608
7092.782000 7092.780000 3.010000 1.416289 544.444378 132.086656 28.503235
7097.381000 7097.380000 3.030000 1.413433 547.559760 133.222208 28.826490
7102.004000 7102.000000 3.040000 1.411278 549.177583 133.904264 29.051961
7106.641000 7106.640000 3.050000 1.410949 550.306240 134.223858 29.197780
7111.309000 7111.300000 3.060000 1.426947 550.924405 132.240897 28.826368
7115.986000 7115.980000 3.080000 1.446482 553.157885 130.187269 28.436993
7120.685000 7120.680000 3.090000 1.808529 551.860959 90.427083 19.788373
7125.405000 7125.400000 3.100000 2.279622 542.809318 55.544219 12.161816
7130.134000 7130.130000 3.110000 2.067602 531.872788 67.274754 14.756822
7134.891000 7134.890000 3.130000 2.146383 534.405972 62.476444 13.744968
7139.667000 7139.660000 3.140000 2.039806 540.316607 70.266577 15.501326
7144.463000 7144.460000 3.150000 1.899137 543.591573 81.367442 18.001886
7149.277000 7149.270000 3.160000 1.860990 546.802988 85.034925 18.865964
7154.108000 7154.100000 3.180000 1.887291 552.424823 83.676699 18.614595
7158.949000 7158.950000 3.190000 1.964850 554.593492 77.745158 17.341135
7163.820000 7163.820000 3.200000 1.995473 555.916892 75.576553 16.903216
7168.713000 7168.710000 3.210000 2.029225 556.867423 73.192119 16.414175
7173.624000 7173.620000 3.230000 2.023968 559.313280 73.900492 16.617555
7178.551000 7178.540000 3.240000 1.988131 560.181994 76.716489 17.297406
7183.494000 7183.490000 3.250000 1.978054 561.223692 77.637226 17.552451
7188.454000 7188.450000 3.260000 1.973813 561.989647 78.073632 17.700562
7193.438000 7193.440000 3.280000 1.953504 565.594741 80.184887 18.227682
7198.443000 7198.440000 3.290000 1.926602 566.819800 82.550390 18.816071
7203.465000 7203.460000 3.300000 1.921765 568.864343 83.250809 19.027520
7208.506000 7208.500000 3.310000 1.921072 570.550879 83.555753 19.150613
7213.562000 7213.560000 3.330000 1.915316 573.742985 84.507894 19.419968
7218.643000 7218.640000 3.340000 1.918968 574.830293 84.359530 19.440561
7223.739000 7223.740000 3.350000 1.915935 575.453710 84.707348 19.575773
7228.864000 7228.860000 3.360000 1.916346 577.604768 84.989248 19.695138
7233.997000 7233.990000 3.380000 1.915747 580.251861 85.430012 19.851298
7239.155000 7239.150000 3.390000 1.913041 581.181595 85.798733 19.993054
7244.323000 7244.320000 3.400000 1.910469 582.466813 86.209889 20.142320
7249.524000 7249.520000 3.410000 1.911378 582.742436 86.172366 20.188484
7254.732000 7254.730000 3.430000 1.911964 580.603865 85.805742 20.157461
7259.963000 7259.960000 3.440000 1.901183 585.833660 87.517103 20.615810
7265.214000 7265.210000 3.450000 1.884969 585.762917 88.937468 21.008979
7270.488000 7270.480000 3.460000 1.871519 591.029881 90.952386 21.543734
7275.773000 7275.770000 3.480000 1.862746 594.503873 92.292494 21.918456
7281.079000 7281.080000 3.490000 1.863230 584.796262 90.741721 21.611075
