# XDI/1.0 BlueSky/1.5.3
# Beamline.name: 6BM
# Beamline.xray_source: NSLS-II three-pole wiggler
# Beamline.collimation: paraboloid mirror, 5 nm Rh on 30 nm Pt
# Beamline.focusing: not in use
# Beamline.harmonic_rejection: flat mirror, Si stripe, pitch = 7.0 mrad relative to beam
# Detector.i0: 10 cm N2
# Detector.i1: 25 cm N2
# Detector.i2: 25 cm N2
# Element.symbol: Mn
# Element.edge: K
# Facility.name: NSLS-II
# Facility.energy: 3.0
# Facility.current: 400.5
# Facility.mode: top-off
# Facility.gup: 305081
# Facility.saf: 305123
# Mono.name: Si(111)
# Mono.d_spacing: 3.1353241
# Mono.encoder_resolution: 0.0000050 deg/ct
# Mono.angle_offset: 16.0581090 deg
# Mono.scan_mode: fixed exit
# Mono.scan_type: step
# Mono.direction: forward in energy
# Sample.name: Ca2(Mn2+,Mg)(Al,Mn3+,Fe)2(SiO4)(Si2O7)(OH)2.H2O]
# Sample.prep: Powder in polyethylene glycol pellet
# Sample.x_position: -120.140 mm
# Sample.y_position: 112.312 mm
# Scan.experimenters: Neil Hyatt, Martin Stennett, Lucy Mottram
# Scan.edge_energy: 6539.0
# Scan.start_time: 2019-11-11T15:38:23
# Scan.end_time: 2019-11-12T01:22:51
# Scan.transient_id: 17900
# Scan.uid: c5bfe02d-1571-4879-817d-13eefa1d3ad7
# Scan.plot_hint: ln(I0/It)  --  ln($5/$6)
# Scan.sequence: merge of 5 scans
# Column.1: energy eV
# Column.2: requested_energy eV
# Column.3: measurement_time seconds
# Column.4: mutrans
# Column.5: i0
# Column.6: itrans
# Column.7: irefer
# /////
#  Mineral
# -----
# energy   requested_energy   measurement_time   mutrans   i0   itrans   irefer
6338.996000 6339.000000 0.500000 2.566321 89.832484 6.900765 1.579230
6349.010000 6349.000000 0.500000 2.552373 89.995942 7.010365 1.616060
6359.012000 6359.000000 0.500000 2.538461 90.156472 7.121277 1.653097
6369.014000 6369.000000 0.500000 2.524560 90.325487 7.234446 1.690788
6379.021000 6379.000000 0.500000 2.510833 90.505378 7.349101 1.729494
6389.011000 6389.000000 0.500000 2.497135 90.678219 7.464614 1.768749
6399.012000 6399.000000 0.500000 2.483548 90.840211 7.580278 1.807940
6409.014000 6409.000000 0.500000 2.469939 90.986209 7.696504 1.848144
6419.009000 6419.000000 0.500000 2.456440 91.140333 7.814276 1.888572
6429.010000 6429.000000 0.500000 2.443135 91.289487 7.931902 1.930453
6439.009000 6439.000000 0.500000 2.429719 91.423830 8.050846 1.972342
6449.013000 6449.000000 0.500000 2.416623 91.410529 8.155840 2.010649
6459.009000 6459.000000 0.500000 2.403608 91.393334 8.261083 2.050039
6469.011000 6469.000000 0.500000 2.390564 91.822296 8.408856 2.099940
6479.006000 6479.000000 0.500000 2.377615 92.045670 8.539162 2.145657
6489.005000 6489.000000 0.500000 2.364720 92.223752 8.666715 2.191335
6499.004000 6499.000000 0.500000 2.352000 92.377833 8.792329 2.236443
6509.473000 6509.000000 0.500000 2.339516 92.568949 8.924775 2.283709
6510.993000 6511.000000 0.500000 2.337132 92.582368 8.943777 2.290263
6512.996000 6513.000000 0.500000 2.334696 92.595958 8.966949 2.298609
6514.982000 6515.000000 0.500000 2.332257 92.690528 8.997974 2.309127
6517.394000 6517.000000 0.500000 2.329815 92.723371 9.025238 2.318829
6519.472000 6519.000000 0.500000 2.327444 92.760455 9.052257 2.327177
6521.391000 6521.000000 0.500000 2.325183 92.788496 9.074628 2.334754
6522.985000 6523.000000 0.500000 2.322985 92.823304 9.094803 2.341450
6524.983000 6525.000000 0.500000 2.320664 92.859852 9.118858 2.348603
6526.982000 6527.000000 0.500000 2.318429 92.885808 9.142512 2.355439
6528.984000 6529.000000 0.500000 2.316334 92.912395 9.164314 2.360795
6529.085000 6529.100000 0.500000 2.316318 92.916400 9.164810 2.361254
6529.187000 6529.200000 0.500000 2.316183 92.922927 9.166773 2.360934
6529.284000 6529.300000 0.500000 2.316129 92.918272 9.166503 2.361213
6529.384000 6529.400000 0.500000 2.315947 92.921094 9.168748 2.361824
6529.486000 6529.500000 0.500000 2.315869 92.922364 9.169586 2.362039
6529.585000 6529.600000 0.500000 2.315808 92.941281 9.172049 2.362513
6529.685000 6529.700000 0.500000 2.315642 92.923474 9.171788 2.362188
6529.786000 6529.800000 0.500000 2.315581 92.935262 9.173494 2.362830
6529.888000 6529.900000 0.500000 2.315420 92.934978 9.174961 2.362505
6529.985000 6530.000000 0.500000 2.315348 92.927121 9.174832 2.362370
6530.085000 6530.100000 0.500000 2.315242 92.935200 9.176582 2.363048
6530.186000 6530.200000 0.500000 2.315203 92.932799 9.176714 2.363280
6530.286000 6530.300000 0.500000 2.315116 92.930418 9.177268 2.363344
6530.385000 6530.400000 0.500000 2.315016 92.934722 9.178599 2.363641
6530.487000 6530.500000 0.500000 2.314840 92.941292 9.180907 2.363928
6530.588000 6530.600000 0.500000 2.314712 92.934367 9.181367 2.363731
6530.685000 6530.700000 0.500000 2.314709 92.928272 9.180797 2.363550
6530.785000 6530.800000 0.500000 2.314588 92.929539 9.182000 2.363884
6530.889000 6530.900000 0.500000 2.314489 92.931117 9.183106 2.363605
6530.988000 6531.000000 0.500000 2.314421 92.939004 9.184492 2.364239
6531.087000 6531.100000 0.500000 2.314355 92.935555 9.184711 2.363469
6531.192000 6531.200000 0.500000 2.314280 92.933955 9.185337 2.363680
6531.286000 6531.300000 0.500000 2.314053 92.934841 9.187376 2.364158
6531.392000 6531.400000 0.500000 2.313956 92.946279 9.189472 2.364457
6531.496000 6531.500000 0.500000 2.313885 93.005236 9.195958 2.366232
6531.593000 6531.600000 0.500000 2.313791 93.008200 9.197047 2.366068
6531.693000 6531.700000 0.500000 2.313721 93.010746 9.197981 2.366033
6531.795000 6531.800000 0.500000 2.313657 93.004994 9.198072 2.365806
6531.894000 6531.900000 0.500000 2.313489 93.036740 9.202630 2.366792
6531.993000 6532.000000 0.500000 2.313464 93.064916 9.205682 2.367175
6532.099000 6532.100000 0.500000 2.313319 93.070343 9.207562 2.367419
6532.197000 6532.200000 0.500000 2.313280 93.074616 9.208356 2.367573
6532.294000 6532.300000 0.500000 2.313120 93.072486 9.209511 2.366716
6532.398000 6532.400000 0.500000 2.312992 93.080402 9.211545 2.367208
6532.497000 6532.500000 0.500000 2.312956 93.077204 9.211596 2.367166
6532.598000 6532.600000 0.500000 2.312820 93.078337 9.212945 2.367230
6532.698000 6532.700000 0.500000 2.312773 93.073827 9.212915 2.366300
6532.801000 6532.800000 0.500000 2.312726 93.069535 9.213004 2.366788
6532.896000 6532.900000 0.500000 2.312671 93.070042 9.213543 2.366231
6532.996000 6533.000000 0.500000 2.312647 93.074015 9.214125 2.366208
6533.097000 6533.100000 0.500000 2.312643 93.108308 9.217527 2.366261
6533.195000 6533.200000 0.500000 2.312437 93.141639 9.222670 2.367100
6533.298000 6533.300000 0.500000 2.312360 93.133536 9.222641 2.366767
6533.398000 6533.400000 0.500000 2.312245 93.127233 9.223065 2.366119
6533.497000 6533.500000 0.500000 2.312166 93.127160 9.223803 2.365541
6533.598000 6533.600000 0.500000 2.312052 93.139317 9.226049 2.365978
6533.695000 6533.700000 0.500000 2.312005 93.136788 9.226228 2.365349
6533.795000 6533.800000 0.500000 2.311940 93.141624 9.227315 2.364917
6533.892000 6533.900000 0.500000 2.311887 93.136929 9.227293 2.364547
6533.996000 6534.000000 0.500000 2.311862 93.142400 9.228128 2.363693
6534.093000 6534.100000 0.500000 2.311746 93.137257 9.228657 2.362886
6534.194000 6534.200000 0.500000 2.311686 93.137266 9.229222 2.362620
6534.298000 6534.300000 0.500000 2.311588 93.131747 9.229561 2.361381
6534.393000 6534.400000 0.500000 2.311506 93.136292 9.230730 2.361222
6534.496000 6534.500000 0.500000 2.311512 93.145818 9.231690 2.360564
6534.598000 6534.600000 0.500000 2.311412 93.138336 9.231858 2.359540
6534.697000 6534.700000 0.500000 2.311388 93.141597 9.232405 2.358059
6534.796000 6534.800000 0.500000 2.311376 93.127622 9.231117 2.356747
6534.900000 6534.900000 0.500000 2.311278 93.118763 9.231146 2.355087
6534.999000 6535.000000 0.500000 2.311249 93.128158 9.232340 2.354338
6535.098000 6535.100000 0.500000 2.311173 93.133195 9.233513 2.353280
6535.200000 6535.200000 0.500000 2.311107 93.126890 9.233541 2.351199
6535.301000 6535.300000 0.500000 2.311143 93.126181 9.233141 2.349675
6535.399000 6535.400000 0.500000 2.311102 93.125571 9.233440 2.347454
6535.500000 6535.500000 0.500000 2.311087 93.125863 9.233616 2.345073
6535.601000 6535.600000 0.500000 2.311049 93.118698 9.233262 2.342750
6535.698000 6535.700000 0.500000 2.311018 93.118352 9.233510 2.340577
6535.802000 6535.800000 0.500000 2.311012 93.118684 9.233604 2.337542
6535.901000 6535.900000 0.500000 2.310961 93.111069 9.233308 2.334185
6536.001000 6536.000000 0.500000 2.310998 93.111858 9.233062 2.330630
6536.102000 6536.100000 0.500000 2.311043 93.102078 9.231694 2.326127
6536.203000 6536.200000 0.500000 2.310966 93.108576 9.233020 2.322025
6536.300000 6536.300000 0.500000 2.311021 93.110755 9.232739 2.316616
6536.400000 6536.400000 0.500000 2.311105 93.099042 9.230810 2.310651
6536.503000 6536.500000 0.500000 2.311125 93.093373 9.230023 2.304144
6536.602000 6536.600000 0.500000 2.311189 93.095966 9.229709 2.297197
6536.699000 6536.700000 0.500000 2.311246 93.091103 9.228707 2.288200
6536.801000 6536.800000 0.500000 2.311320 93.091202 9.227993 2.277677
6536.898000 6536.900000 0.500000 2.311579 93.089656 9.225542 2.266314
6536.997000 6537.000000 0.500000 2.311687 93.090821 9.224635 2.252770
6537.100000 6537.100000 0.500000 2.311868 93.082450 9.222076 2.236685
6537.198000 6537.200000 0.500000 2.312160 93.084258 9.219598 2.219791
6537.296000 6537.300000 0.500000 2.312474 93.083590 9.216699 2.200972
6537.398000 6537.400000 0.500000 2.312837 93.092597 9.214081 2.180706
6537.497000 6537.500000 0.500000 2.313324 93.092090 9.209667 2.159622
6537.592000 6537.600000 0.500000 2.313877 93.089332 9.204554 2.138946
6537.698000 6537.700000 0.500000 2.314545 93.085400 9.197711 2.115540
6537.797000 6537.800000 0.500000 2.315368 93.076639 9.189285 2.093770
6537.898000 6537.900000 0.500000 2.316235 93.082311 9.181939 2.073947
6537.999000 6538.000000 0.500000 2.317008 93.079700 9.174493 2.053734
6538.101000 6538.100000 0.500000 2.318077 93.080283 9.164472 2.034968
6538.193000 6538.200000 0.500000 2.319106 93.077063 9.155429 2.019013
6538.299000 6538.300000 0.500000 2.319919 93.075927 9.147539 2.002764
6538.400000 6538.400000 0.500000 2.320772 93.094454 9.141464 1.988700
6538.499000 6538.500000 0.500000 2.321607 93.096203 9.134139 1.975674
6538.599000 6538.600000 0.500000 2.322214 93.088544 9.127845 1.963316
6538.702000 6538.700000 0.500000 2.322693 93.118748 9.126333 1.952831
6538.801000 6538.800000 0.500000 2.322992 93.126419 9.124456 1.943451
6538.900000 6538.900000 0.500000 2.323150 93.126296 9.122980 1.934237
6539.004000 6539.000000 0.500000 2.323258 93.123275 9.121685 1.925451
6539.101000 6539.100000 0.500000 2.323237 93.116911 9.121277 1.917689
6539.200000 6539.200000 0.500000 2.322971 93.122020 9.124138 1.911366
6539.304000 6539.300000 0.500000 2.322643 93.192484 9.134161 1.905716
6539.403000 6539.400000 0.500000 2.322353 93.193598 9.136909 1.899723
6539.502000 6539.500000 0.500000 2.321721 93.189094 9.142147 1.893899
6539.603000 6539.600000 0.500000 2.321295 93.182535 9.145507 1.888196
6539.704000 6539.700000 0.500000 2.320862 93.188841 9.150147 1.883210
6539.799000 6539.800000 0.500000 2.320443 93.191945 9.154115 1.878787
6539.900000 6539.900000 0.500000 2.319987 93.188052 9.157930 1.873673
6540.001000 6540.000000 0.500000 2.319596 93.189303 9.161703 1.868731
6540.100000 6540.100000 0.500000 2.319422 93.188500 9.163194 1.864072
6540.199000 6540.200000 0.500000 2.319267 93.191495 9.164914 1.859100
6540.301000 6540.300000 0.500000 2.319216 93.188171 9.165076 1.854207
6540.398000 6540.400000 0.500000 2.319158 93.190924 9.165863 1.850579
6540.499000 6540.500000 0.500000 2.319048 93.194071 9.167183 1.846232
6540.600000 6540.600000 0.500000 2.319049 93.185854 9.166358 1.843094
6540.697000 6540.700000 0.500000 2.319063 93.182746 9.165943 1.840331
6540.796000 6540.800000 0.500000 2.319021 93.185878 9.166606 1.837471
6540.901000 6540.900000 0.500000 2.319003 93.186372 9.166874 1.835393
6540.998000 6541.000000 0.500000 2.318906 93.194265 9.168511 1.834181
6541.097000 6541.100000 0.500000 2.318843 93.200222 9.169665 1.832859
6541.201000 6541.200000 0.500000 2.318678 93.199296 9.171144 1.831791
6541.295000 6541.300000 0.500000 2.318496 93.197366 9.172535 1.831467
6541.396000 6541.400000 0.500000 2.318334 93.200371 9.174329 1.831268
6541.500000 6541.500000 0.500000 2.318164 93.200589 9.175970 1.830966
6541.599000 6541.600000 0.500000 2.318013 93.205076 9.177771 1.830726
6541.698000 6541.700000 0.500000 2.317796 93.202115 9.179448 1.830898
6541.801000 6541.800000 0.500000 2.317667 93.199226 9.180385 1.830192
6541.900000 6541.900000 0.500000 2.317525 93.198098 9.181570 1.829271
6542.001000 6542.000000 0.500000 2.317466 93.197386 9.182038 1.828185
6542.103000 6542.100000 0.500000 2.317448 93.205078 9.182932 1.826653
6542.200000 6542.200000 0.500000 2.317498 93.198210 9.181829 1.824075
6542.299000 6542.300000 0.500000 2.317569 93.196739 9.181039 1.822152
6542.404000 6542.400000 0.500000 2.317696 93.197195 9.179866 1.819088
6542.501000 6542.500000 0.500000 2.317877 93.197703 9.178329 1.815806
6542.598000 6542.600000 0.500000 2.318087 93.202743 9.176949 1.812020
6542.703000 6542.700000 0.500000 2.318387 93.198155 9.173644 1.808098
6542.804000 6542.800000 0.500000 2.318713 93.191185 9.169943 1.803846
6542.901000 6542.900000 0.500000 2.319013 93.195421 9.167695 1.799439
6543.002000 6543.000000 0.500000 2.319418 93.197294 9.164153 1.795393
6543.103000 6543.100000 0.500000 2.319837 93.197642 9.160252 1.790579
6543.202000 6543.200000 0.500000 2.320281 93.188102 9.155376 1.785917
6543.301000 6543.300000 0.500000 2.320806 93.191167 9.150923 1.781691
6543.400000 6543.400000 0.500000 2.321282 93.196657 9.147054 1.776926
6543.503000 6543.500000 0.500000 2.321862 93.199086 9.141872 1.772231
6543.598000 6543.600000 0.500000 2.322414 93.197830 9.136904 1.767823
6543.701000 6543.700000 0.500000 2.323047 93.194166 9.130560 1.763297
6543.800000 6543.800000 0.500000 2.323791 93.194384 9.123881 1.758317
6543.895000 6543.900000 0.500000 2.324556 93.189806 9.116620 1.753631
6544.002000 6544.000000 0.500000 2.325438 93.188895 9.108002 1.748480
6544.097000 6544.100000 0.500000 2.326384 93.185903 9.099556 1.743017
6544.196000 6544.200000 0.500000 2.327382 93.185152 9.090534 1.738665
6544.295000 6544.300000 0.500000 2.328522 93.177221 9.079224 1.732378
6544.398000 6544.400000 0.500000 2.329790 93.175582 9.067469 1.727053
6544.495000 6544.500000 0.500000 2.331124 93.246156 9.062573 1.722614
6544.598000 6544.600000 0.500000 2.332668 93.244340 9.047854 1.716221
6544.699000 6544.700000 0.500000 2.334252 93.243651 9.033364 1.709886
6544.796000 6544.800000 0.500000 2.336173 93.241715 9.016509 1.702497
6544.897000 6544.900000 0.500000 2.337995 93.235409 8.999025 1.695634
6545.000000 6545.000000 0.500000 2.340095 93.301839 8.986038 1.688870
6545.094000 6545.100000 0.500000 2.342375 93.310715 8.967962 1.681744
6545.196000 6545.200000 0.500000 2.344764 93.305380 8.945878 1.673405
6545.301000 6545.300000 0.500000 2.347371 93.302395 8.921218 1.664233
6545.400000 6545.400000 0.500000 2.350230 93.304131 8.896223 1.655748
6545.499000 6545.500000 0.500000 2.353170 93.301948 8.870212 1.646354
6545.602000 6545.600000 0.500000 2.356346 93.295421 8.840684 1.636692
6545.699000 6545.700000 0.500000 2.359716 93.292209 8.811584 1.627129
6545.800000 6545.800000 0.500000 2.363422 93.289969 8.778964 1.616052
6545.903000 6545.900000 0.500000 2.367222 93.285818 8.744197 1.605162
6546.004000 6546.000000 0.500000 2.371367 93.296745 8.708797 1.593709
6546.101000 6546.100000 0.500000 2.375789 93.362896 8.677461 1.583410
6546.202000 6546.200000 0.500000 2.380404 93.358349 8.636359 1.570705
6546.300000 6546.300000 0.500000 2.385490 93.356026 8.593364 1.558288
6546.401000 6546.400000 0.500000 2.390768 93.352890 8.548227 1.545488
6546.502000 6546.500000 0.500000 2.396339 93.348684 8.499277 1.531522
6546.604000 6546.600000 0.500000 2.402277 93.345144 8.448008 1.517237
6546.704000 6546.700000 0.500000 2.408494 93.353422 8.397009 1.503166
6546.801000 6546.800000 0.500000 2.414778 93.349913 8.344832 1.488901
6546.904000 6546.900000 0.500000 2.421273 93.345205 8.288448 1.473971
6547.001000 6547.000000 0.500000 2.427950 93.339468 8.233534 1.459384
6547.099000 6547.100000 0.500000 2.434694 93.339088 8.179273 1.445435
6547.201000 6547.200000 0.500000 2.441591 93.339053 8.121917 1.430270
6547.301000 6547.300000 0.500000 2.448671 93.334380 8.064559 1.415351
6547.400000 6547.400000 0.500000 2.455591 93.332419 8.008561 1.400863
6547.501000 6547.500000 0.500000 2.462661 93.326350 7.950749 1.386127
6547.600000 6547.600000 0.500000 2.469732 93.320566 7.894873 1.371464
6547.697000 6547.700000 0.500000 2.476763 93.316620 7.840679 1.357655
6547.798000 6547.800000 0.500000 2.483801 93.319146 7.785129 1.343336
6547.899000 6547.900000 0.500000 2.490825 93.311932 7.729404 1.329028
6547.997000 6548.000000 0.500000 2.497691 93.310835 7.678010 1.315545
6548.096000 6548.100000 0.500000 2.504200 93.311264 7.627290 1.302172
6548.197000 6548.200000 0.500000 2.510854 93.312117 7.576778 1.288806
6548.295000 6548.300000 0.500000 2.517230 93.306864 7.530086 1.276029
6548.399000 6548.400000 0.500000 2.523308 93.303813 7.481906 1.263351
6548.502000 6548.500000 0.500000 2.529245 93.301617 7.437061 1.250423
6548.599000 6548.600000 0.500000 2.534800 93.295611 7.396829 1.239882
6548.697000 6548.700000 0.500000 2.540093 93.292437 7.357525 1.228959
6548.802000 6548.800000 0.500000 2.544990 93.283410 7.319702 1.217964
6548.897000 6548.900000 0.500000 2.549670 93.285629 7.287392 1.208628
6548.998000 6549.000000 0.500000 2.554241 93.283577 7.253249 1.198631
6549.103000 6549.100000 0.500000 2.558503 93.284846 7.221347 1.189129
6549.200000 6549.200000 0.500000 2.562905 93.276688 7.190136 1.180172
6549.300000 6549.300000 0.500000 2.567123 93.274535 7.159508 1.170918
6549.402000 6549.400000 0.500000 2.571546 93.277759 7.128231 1.162061
6549.502000 6549.500000 0.500000 2.575919 93.279763 7.097225 1.152850
6549.601000 6549.600000 0.500000 2.580523 93.272201 7.064623 1.143833
6549.704000 6549.700000 0.500000 2.585319 93.268725 7.029374 1.134233
6549.801000 6549.800000 0.500000 2.590411 93.270776 6.994944 1.125242
6549.901000 6549.900000 0.500000 2.595493 93.268842 6.959152 1.115903
6550.005000 6550.000000 0.500000 2.600902 93.270648 6.920258 1.105980
6550.103000 6550.100000 0.500000 2.606492 93.268034 6.882472 1.096290
6550.202000 6550.200000 0.500000 2.612379 93.261275 6.841756 1.086815
6550.305000 6550.300000 0.500000 2.618168 93.256220 6.800226 1.076749
6550.403000 6550.400000 0.500000 2.624044 93.260232 6.761522 1.067475
6550.500000 6550.500000 0.500000 2.630024 93.251979 6.721431 1.058019
6550.601000 6550.600000 0.500000 2.636044 93.259419 6.680908 1.048769
6550.704000 6550.700000 0.500000 2.642050 93.251063 6.639497 1.039304
6550.798000 6550.800000 0.500000 2.648412 93.249810 6.599523 1.030058
6550.899000 6550.900000 0.500000 2.654412 93.249778 6.559015 1.020902
6550.998000 6551.000000 0.500000 2.660795 93.245318 6.516969 1.011701
6551.100000 6551.100000 0.500000 2.667283 93.232166 6.473972 1.001982
6551.197000 6551.200000 0.500000 2.673989 93.237602 6.431184 0.993154
6551.300000 6551.300000 0.500000 2.680946 93.235029 6.385338 0.983356
6551.398000 6551.400000 0.500000 2.688031 93.235432 6.341461 0.973697
6551.497000 6551.500000 0.500000 2.695318 93.235575 6.296064 0.964393
6551.600000 6551.600000 0.500000 2.702797 93.278451 6.250382 0.954935
6551.699000 6551.700000 0.500000 2.710461 93.279950 6.203516 0.944950
6551.798000 6551.800000 0.500000 2.718003 93.276305 6.157042 0.935600
6551.900000 6551.900000 0.500000 2.725570 93.265808 6.108348 0.925790
6551.995000 6552.000000 0.500000 2.733409 93.272409 6.063781 0.916823
6552.095000 6552.100000 0.500000 2.741117 93.267172 6.017517 0.907614
6552.201000 6552.200000 0.500000 2.748546 93.263807 5.970585 0.898327
6552.301000 6552.300000 0.500000 2.755748 93.327173 5.931826 0.890104
6552.400000 6552.400000 0.500000 2.762569 93.328380 5.892276 0.882256
6552.503000 6552.500000 0.500000 2.769161 93.327137 5.852292 0.874250
6552.602000 6552.600000 0.500000 2.775462 93.317738 5.815453 0.867095
6552.700000 6552.700000 0.500000 2.781622 93.309241 5.780356 0.859958
6552.801000 6552.800000 0.500000 2.787411 93.308272 5.746548 0.853296
6552.904000 6552.900000 0.500000 2.792826 93.306559 5.714472 0.846447
6553.002000 6553.000000 0.500000 2.798069 93.305613 5.685465 0.840521
6553.101000 6553.100000 0.500000 2.802869 93.297394 5.657549 0.834979
6553.206000 6553.200000 0.500000 2.807628 93.300237 5.629512 0.829050
6553.300000 6553.300000 0.500000 2.812136 93.300804 5.605650 0.823944
6553.399000 6553.400000 0.500000 2.816466 93.289146 5.580715 0.819098
6553.504000 6553.500000 0.500000 2.820570 93.294471 5.557449 0.814364
6553.603000 6553.600000 0.500000 2.824567 93.292465 5.535198 0.810226
6553.703000 6553.700000 0.500000 2.828498 93.299398 5.513838 0.805606
6553.800000 6553.800000 0.500000 2.832374 93.292599 5.492572 0.801846
6553.898000 6553.900000 0.500000 2.836045 93.289214 5.472382 0.797937
6553.997000 6554.000000 0.500000 2.839542 93.283045 5.453046 0.794420
6554.102000 6554.100000 0.500000 2.843012 93.282297 5.433419 0.790746
6554.200000 6554.200000 0.500000 2.846337 93.288800 5.415940 0.787451
6554.299000 6554.300000 0.500000 2.849596 93.284181 5.398203 0.784883
6554.401000 6554.400000 0.500000 2.852492 93.282343 5.382264 0.781889
6554.500000 6554.500000 0.500000 2.855374 93.288036 5.367078 0.779756
6554.594000 6554.600000 0.500000 2.858127 93.276245 5.352430 0.777157
6554.695000 6554.700000 0.500000 2.860836 93.273652 5.337484 0.774847
6554.800000 6554.800000 0.500000 2.863476 93.274863 5.322823 0.773182
6554.898000 6554.900000 0.500000 2.866066 93.283665 5.310010 0.771235
6554.997000 6555.000000 0.500000 2.868570 93.276095 5.296172 0.769425
6555.098000 6555.100000 0.500000 2.871167 93.274389 5.282364 0.767751
6555.192000 6555.200000 0.500000 2.873623 93.272899 5.270033 0.766118
6555.297000 6555.300000 0.500000 2.876137 93.271037 5.256078 0.764597
6555.402000 6555.400000 0.500000 2.878827 93.276209 5.241865 0.762922
6555.500000 6555.500000 0.500000 2.881303 93.272460 5.229163 0.761748
6555.598000 6555.600000 0.500000 2.883983 93.266355 5.214936 0.760540
6555.702000 6555.700000 0.500000 2.886800 93.266988 5.199836 0.758872
6555.800000 6555.800000 0.500000 2.889504 93.267522 5.186145 0.757834
6555.900000 6555.900000 0.500000 2.892253 93.265295 5.171804 0.756893
6556.003000 6556.000000 0.500000 2.895222 93.264222 5.156185 0.755359
6556.100000 6556.100000 0.500000 2.897986 93.265454 5.142343 0.754631
6556.200000 6556.200000 0.500000 2.900876 93.260418 5.127421 0.753464
6556.303000 6556.300000 0.500000 2.903780 93.256154 5.111767 0.752091
6556.404000 6556.400000 0.500000 2.906653 93.260822 5.097439 0.751284
6556.500000 6556.500000 0.500000 2.909585 93.250387 5.082347 0.749907
6556.601000 6556.600000 0.500000 2.912374 93.246975 5.067701 0.749238
6556.705000 6556.700000 0.500000 2.915187 93.249554 5.053276 0.748008
6556.800000 6556.800000 0.500000 2.917855 93.246497 5.040196 0.747507
6556.900000 6556.900000 0.500000 2.920456 93.247010 5.027153 0.746629
6557.005000 6557.000000 0.500000 2.922824 93.252957 5.015016 0.746465
6557.101000 6557.100000 0.500000 2.924916 93.244304 5.004370 0.746020
6557.202000 6557.200000 0.500000 2.926739 93.233545 4.994579 0.745554
6557.302000 6557.300000 0.500000 2.928401 93.238493 4.986535 0.745421
6557.399000 6557.400000 0.500000 2.929660 93.251976 4.981204 0.745736
6557.499000 6557.500000 0.500000 2.930702 93.245285 4.975622 0.745911
6557.602000 6557.600000 0.500000 2.931216 93.306339 4.976262 0.747245
6557.700000 6557.700000 0.500000 2.931366 93.306220 4.975506 0.748162
6557.801000 6557.800000 0.500000 2.931240 93.308740 4.976327 0.749334
6557.901000 6557.900000 0.500000 2.930593 93.304955 4.979353 0.750577
6557.998000 6558.000000 0.500000 2.929572 93.302202 4.984260 0.752432
6558.096000 6558.100000 0.500000 2.928281 93.315959 4.991276 0.754380
6558.197000 6558.200000 0.500000 2.926546 93.310371 4.999743 0.756468
6558.299000 6558.300000 0.500000 2.924286 93.315345 5.011441 0.759336
6558.395000 6558.400000 0.500000 2.921724 93.345993 5.025317 0.761914
6558.500000 6558.500000 0.500000 2.919017 93.344317 5.039558 0.764893
6558.599000 6558.600000 0.500000 2.915577 93.337929 5.056095 0.768256
6558.697000 6558.700000 0.500000 2.912053 93.339547 5.074123 0.771774
6558.798000 6558.800000 0.500000 2.908052 93.338474 5.093913 0.775439
6558.900000 6558.900000 0.500000 2.903810 93.346915 5.116776 0.779493
6558.996000 6559.000000 0.500000 2.899443 93.388772 5.140285 0.783654
6559.099000 6559.100000 0.500000 2.894679 93.403837 5.166331 0.788053
6559.202000 6559.200000 0.500000 2.889806 93.397302 5.192093 0.792553
6559.302000 6559.300000 0.500000 2.884802 93.403458 5.218184 0.796775
6559.403000 6559.400000 0.500000 2.879734 93.403653 5.244815 0.801608
6559.504000 6559.500000 0.500000 2.874642 93.401736 5.271967 0.806121
6559.599000 6559.600000 0.500000 2.869534 93.398292 5.297784 0.810335
6559.698000 6559.700000 0.500000 2.864400 93.385432 5.324011 0.814443
6559.805000 6559.800000 0.500000 2.859446 93.382949 5.351758 0.818885
6559.903000 6559.900000 0.500000 2.854553 93.365876 5.376574 0.822895
6560.001000 6560.000000 0.500000 2.849640 93.358572 5.402211 0.826974
6560.104000 6560.100000 0.500000 2.844893 93.332690 5.427256 0.831082
6560.203000 6560.200000 0.500000 2.840556 93.311332 5.449198 0.834935
6560.301000 6560.300000 0.500000 2.836194 93.281145 5.470826 0.837877
6560.406000 6560.400000 0.500000 2.832209 93.254125 5.492121 0.841204
6560.504000 6560.500000 0.500000 2.828440 93.230672 5.511088 0.844005
6560.602000 6560.600000 0.500000 2.825038 93.212964 5.528351 0.847130
6560.702000 6560.700000 0.500000 2.821912 93.193806 5.544335 0.849277
6560.803000 6560.800000 0.500000 2.819267 93.166580 5.557829 0.851380
6560.899000 6560.900000 0.500000 2.816750 93.160824 5.570817 0.853418
6561.002000 6561.000000 0.500000 2.815013 93.171950 5.581514 0.854723
6561.102000 6561.100000 0.500000 2.813206 93.206792 5.593649 0.856440
6561.202000 6561.200000 0.500000 2.811864 93.256410 5.604077 0.858338
6561.298000 6561.300000 0.500000 2.810941 93.298358 5.611671 0.859131
6561.401000 6561.400000 0.500000 2.810175 93.327781 5.617817 0.859783
6561.495000 6561.500000 0.500000 2.809898 93.344530 5.620332 0.860343
6561.598000 6561.600000 0.500000 2.809723 93.362103 5.622416 0.860422
6561.698000 6561.700000 0.500000 2.809672 93.374801 5.623466 0.860364
6561.799000 6561.800000 0.500000 2.809836 93.370354 5.622326 0.859760
6561.895000 6561.900000 0.500000 2.810207 93.365079 5.619980 0.859072
6562.001000 6562.000000 0.500000 2.810799 93.359722 5.616259 0.858248
6562.097000 6562.100000 0.500000 2.811180 93.369833 5.614789 0.857925
6562.196000 6562.200000 0.500000 2.811695 93.375976 5.612295 0.857617
6562.301000 6562.300000 0.500000 2.812457 93.373892 5.607802 0.856407
6562.399000 6562.400000 0.500000 2.812952 93.374418 5.605066 0.855522
6562.497000 6562.500000 0.500000 2.813603 93.365253 5.600979 0.854963
6562.600000 6562.600000 0.500000 2.814185 93.374515 5.598157 0.854206
6562.698000 6562.700000 0.500000 2.814645 93.377965 5.595796 0.853851
6562.798000 6562.800000 0.500000 2.815074 93.371773 5.593070 0.853175
6562.905000 6562.900000 0.500000 2.815565 93.368863 5.590013 0.852766
6563.001000 6563.000000 0.500000 2.815805 93.363484 5.588399 0.852153
6563.101000 6563.100000 0.500000 2.816088 93.368918 5.587164 0.851875
6563.202000 6563.200000 0.500000 2.816343 93.358022 5.585084 0.850999
6563.302000 6563.300000 0.500000 2.816366 93.363928 5.585322 0.851074
6563.404000 6563.400000 0.500000 2.816370 93.368737 5.585582 0.850530
6563.501000 6563.500000 0.500000 2.816299 93.371960 5.586177 0.850508
6563.599000 6563.600000 0.500000 2.816209 93.368983 5.586482 0.850634
6563.703000 6563.700000 0.500000 2.816085 93.369769 5.587239 0.850254
6563.801000 6563.800000 0.500000 2.815958 93.370659 5.588022 0.850265
6563.902000 6563.900000 0.500000 2.815651 93.356355 5.588877 0.850467
6563.996000 6564.000000 0.500000 2.815372 93.365672 5.590942 0.850631
6564.100000 6564.100000 0.500000 2.815104 93.355136 5.591849 0.850683
6564.200000 6564.200000 0.500000 2.814810 93.358539 5.593673 0.850548
6564.297000 6564.300000 0.500000 2.814518 93.358969 5.595319 0.850809
6564.399000 6564.400000 0.500000 2.814116 93.359122 5.597563 0.851255
6564.495000 6564.500000 0.500000 2.813955 93.362629 5.598655 0.851300
6564.599000 6564.600000 0.500000 2.813636 93.387295 5.601966 0.851823
6564.696000 6564.700000 0.500000 2.813335 93.438166 5.606699 0.852393
6564.800000 6564.800000 0.500000 2.813099 93.427192 5.607403 0.851913
6564.894000 6564.900000 0.500000 2.812913 93.433427 5.608765 0.852001
6564.999000 6565.000000 0.500000 2.812614 93.432316 5.610400 0.852425
6565.099000 6565.100000 0.500000 2.812428 93.434058 5.611579 0.852540
6565.197000 6565.200000 0.500000 2.812207 93.428901 5.612501 0.852408
6565.300000 6565.300000 0.500000 2.812138 93.500614 5.617242 0.853292
6565.398000 6565.400000 0.500000 2.811967 93.493622 5.617760 0.853371
6565.502000 6565.500000 0.500000 2.811790 93.493763 5.618771 0.853744
6565.602000 6565.600000 0.500000 2.811811 93.495346 5.618768 0.853448
6565.701000 6565.700000 0.500000 2.811725 93.491273 5.619007 0.853438
6565.801000 6565.800000 0.500000 2.811603 93.493929 5.619854 0.853856
6565.901000 6565.900000 0.500000 2.811463 93.484604 5.620084 0.853534
6566.003000 6566.000000 0.500000 2.811411 93.491679 5.620793 0.853765
6566.102000 6566.100000 0.500000 2.811434 93.495647 5.620914 0.853913
6566.202000 6566.200000 0.500000 2.811290 93.490518 5.621410 0.853636
6566.300000 6566.300000 0.500000 2.811255 93.492224 5.621711 0.853959
6566.400000 6566.400000 0.500000 2.811112 93.490121 5.622376 0.854074
6566.502000 6566.500000 0.500000 2.811154 93.489875 5.622144 0.854140
6566.600000 6566.600000 0.500000 2.811032 93.492214 5.622953 0.854324
6566.699000 6566.700000 0.500000 2.810875 93.487586 5.623552 0.854732
6566.801000 6566.800000 0.500000 2.810856 93.485783 5.623593 0.854701
6566.895000 6566.900000 0.500000 2.810632 93.481888 5.624496 0.854759
6566.997000 6567.000000 0.500000 2.810486 93.482461 5.625431 0.855009
6567.101000 6567.100000 0.500000 2.810356 93.486892 5.626429 0.855117
6567.197000 6567.200000 0.500000 2.810157 93.479560 5.627074 0.855293
6567.297000 6567.300000 0.500000 2.809874 93.474887 5.628394 0.855739
6567.396000 6567.400000 0.500000 2.809654 93.478761 5.629836 0.855869
6567.496000 6567.500000 0.500000 2.809310 93.475699 5.631578 0.856357
6567.600000 6567.600000 0.500000 2.808996 93.479507 5.633645 0.856615
6567.700000 6567.700000 0.500000 2.808501 93.479873 5.636416 0.856910
6567.799000 6567.800000 0.500000 2.808203 93.477246 5.637975 0.857397
6567.901000 6567.900000 0.500000 2.807667 93.474917 5.640862 0.858150
6567.997000 6568.000000 0.500000 2.807200 93.458014 5.642354 0.858144
6568.103000 6568.100000 0.500000 2.806771 93.459650 5.645066 0.858883
6568.203000 6568.200000 0.500000 2.806098 93.468316 5.649317 0.859629
6568.301000 6568.300000 0.500000 2.805480 93.473646 5.653118 0.860304
6568.404000 6568.400000 0.500000 2.804983 93.465386 5.655572 0.860715
6568.502000 6568.500000 0.500000 2.804362 93.470989 5.659310 0.861528
6568.602000 6568.600000 0.500000 2.803654 93.471562 5.663400 0.862463
6568.704000 6568.700000 0.500000 2.803052 93.465136 5.666419 0.863135
6568.802000 6568.800000 0.500000 2.802411 93.463096 5.669867 0.863434
6568.902000 6568.900000 0.500000 2.801828 94.065655 5.709788 0.869991
6569.005000 6569.000000 0.700000 2.801161 130.859340 7.948647 1.210930
6570.093000 6570.080000 0.710000 2.793583 132.736896 8.123820 1.239288
6571.207000 6571.180000 0.730000 2.785491 136.482602 8.421461 1.286155
6572.285000 6572.290000 0.740000 2.774913 138.318138 8.624635 1.317413
6573.427000 6573.430000 0.750000 2.759815 140.199566 8.874090 1.354736
6574.591000 6574.580000 0.760000 2.741856 142.101858 9.158688 1.395932
6575.769000 6575.760000 0.780000 2.723073 145.841895 9.577626 1.455899
6576.958000 6576.950000 0.790000 2.706375 147.737314 9.865273 1.495404
6578.171000 6578.160000 0.800000 2.691982 149.740347 10.144631 1.533067
6579.399000 6579.390000 0.810000 2.679794 151.602633 10.396128 1.566657
6580.651000 6580.640000 0.830000 2.669969 155.414422 10.763328 1.616844
6581.918000 6581.910000 0.840000 2.662406 157.373097 10.981382 1.644701
6583.215000 6583.200000 0.850000 2.656909 159.259994 11.174645 1.670333
6584.518000 6584.510000 0.860000 2.652557 161.128460 11.354863 1.696981
6585.840000 6585.830000 0.880000 2.648894 164.899978 11.663300 1.747054
6587.189000 6587.180000 0.890000 2.646462 166.464704 11.802655 1.775309
6588.547000 6588.540000 0.900000 2.645870 168.626190 11.963004 1.810093
6589.942000 6589.930000 0.910000 2.647188 170.592816 12.086502 1.839536
6591.339000 6591.330000 0.930000 2.649799 174.414821 12.325133 1.885960
6592.762000 6592.750000 0.940000 2.654444 176.334019 12.402893 1.905465
6594.197000 6594.190000 0.950000 2.661658 178.226299 12.446225 1.919906
6595.664000 6595.650000 0.960000 2.670621 180.141129 12.467201 1.931772
6597.134000 6597.130000 0.980000 2.680096 183.881129 12.606528 1.962663
6598.640000 6598.630000 0.990000 2.684285 185.794042 12.684182 1.981398
6600.146000 6600.140000 1.000000 2.685588 187.665506 12.795322 2.002449
6601.693000 6601.680000 1.010000 2.685843 189.196927 12.896403 2.020588
6603.246000 6603.240000 1.030000 2.685409 193.328522 13.183730 2.065438
6604.818000 6604.810000 1.040000 2.684941 195.260259 13.321709 2.085478
6606.406000 6606.400000 1.050000 2.684661 197.133527 13.453270 2.103694
6608.024000 6608.010000 1.060000 2.684523 199.065848 13.587037 2.121426
6609.659000 6609.650000 1.080000 2.683933 202.810818 13.850805 2.158539
6611.308000 6611.300000 1.090000 2.682303 204.713411 14.003530 2.179116
6612.974000 6612.970000 1.100000 2.679807 206.593422 14.167356 2.201205
6614.660000 6614.650000 1.110000 2.676927 208.477517 14.337912 2.225150
6616.371000 6616.360000 1.130000 2.674182 212.254441 14.637753 2.271317
6618.102000 6618.090000 1.140000 2.671776 214.143434 14.803637 2.298042
6619.841000 6619.830000 1.150000 2.670006 216.010094 14.959135 2.325340
6621.609000 6621.600000 1.160000 2.669194 217.925802 15.104055 2.350734
6623.392000 6623.380000 1.180000 2.669147 221.709169 15.367003 2.396933
6625.191000 6625.180000 1.190000 2.669377 223.592714 15.493998 2.422577
6627.011000 6627.000000 1.200000 2.669246 225.493860 15.627820 2.450077
6628.846000 6628.840000 1.210000 2.667638 227.198535 15.771262 2.478810
6630.707000 6630.700000 1.230000 2.664243 231.147074 16.099901 2.536230
6632.581000 6632.580000 1.240000 2.659746 233.032862 16.304182 2.573594
6634.483000 6634.480000 1.250000 2.654650 234.926668 16.520777 2.611073
6636.404000 6636.400000 1.260000 2.649324 236.838839 16.744106 2.648101
6638.333000 6638.330000 1.280000 2.644023 240.558672 17.097491 2.705358
6640.296000 6640.290000 1.290000 2.638746 242.441506 17.322602 2.743353
6642.266000 6642.260000 1.300000 2.633519 244.349688 17.550332 2.783559
6644.267000 6644.260000 1.310000 2.628181 246.266209 17.782833 2.826155
6646.278000 6646.270000 1.330000 2.622976 250.055949 18.150743 2.891910
6648.304000 6648.300000 1.340000 2.618076 251.958544 18.378546 2.936821
6650.357000 6650.350000 1.350000 2.613696 254.011281 18.609780 2.983320
6652.427000 6652.420000 1.360000 2.609807 255.989998 18.827864 3.025680
6654.516000 6654.510000 1.380000 2.606349 259.776673 19.172451 3.089411
6656.618000 6656.610000 1.390000 2.602877 261.871993 19.394490 3.131449
6658.748000 6658.740000 1.400000 2.599507 263.758688 19.600107 3.170291
6660.898000 6660.890000 1.410000 2.596568 265.688470 19.801614 3.206830
6663.060000 6663.050000 1.430000 2.594117 269.531005 20.137457 3.263344
6665.235000 6665.230000 1.440000 2.592107 271.390996 20.317096 3.292662
6667.449000 6667.440000 1.450000 2.590257 273.347344 20.501550 3.323135
6669.670000 6669.660000 1.460000 2.588741 275.225149 20.673694 3.350600
6671.906000 6671.900000 1.480000 2.587160 279.000996 20.990400 3.402315
6674.172000 6674.160000 1.490000 2.585674 280.955321 21.168987 3.432689
6676.449000 6676.440000 1.500000 2.583866 282.833215 21.348986 3.464978
6678.742000 6678.740000 1.510000 2.581575 284.728164 21.541227 3.498920
6681.056000 6681.050000 1.530000 2.578671 288.500814 21.890195 3.561550
6683.392000 6683.390000 1.540000 2.575283 290.415313 22.110248 3.602934
6685.745000 6685.740000 1.550000 2.571528 292.284488 22.336293 3.646846
6688.122000 6688.120000 1.560000 2.567523 294.156448 22.569489 3.693483
6690.517000 6690.510000 1.580000 2.563540 297.941698 22.951339 3.766915
6692.918000 6692.920000 1.590000 2.559872 299.754392 23.175569 3.815764
6695.344000 6695.350000 1.600000 2.556496 301.643606 23.400432 3.864841
6697.799000 6697.800000 1.610000 2.553407 303.510333 23.618230 3.913316
6700.272000 6700.270000 1.630000 2.550636 307.263053 23.976561 3.984056
6702.761000 6702.760000 1.640000 2.548293 309.131562 24.178896 4.029679
6705.271000 6705.270000 1.650000 2.546313 310.973296 24.371136 4.072377
6707.793000 6707.790000 1.660000 2.544545 312.829805 24.560057 4.114444
6710.335000 6710.340000 1.680000 2.542678 316.529160 24.896805 4.179084
6712.891000 6712.900000 1.690000 2.540421 318.552023 25.112366 4.221461
6715.492000 6715.490000 1.700000 2.537665 320.537000 25.338753 4.266399
6718.091000 6718.090000 1.710000 2.534410 322.439405 25.572330 4.311413
6720.710000 6720.710000 1.730000 2.530777 326.305684 25.972938 4.384885
6723.346000 6723.350000 1.740000 2.526859 328.214354 26.227318 4.434259
6726.006000 6726.010000 1.750000 2.522794 330.140018 26.488700 4.483943
6728.692000 6728.690000 1.760000 2.518630 331.966336 26.746421 4.532818
6731.394000 6731.390000 1.780000 2.514387 335.733672 27.165072 4.609271
6734.106000 6734.110000 1.790000 2.510138 337.560933 27.429055 4.659927
6736.835000 6736.840000 1.800000 2.505827 339.690125 27.721054 4.716942
6739.598000 6739.600000 1.810000 2.501351 341.512695 27.994929 4.771646
6742.380000 6742.370000 1.830000 2.496822 345.217689 28.427438 4.855404
6745.172000 6745.170000 1.840000 2.492218 347.055815 28.710448 4.914568
6747.978000 6747.980000 1.850000 2.487510 348.877296 28.997216 4.975374
6750.802000 6750.810000 1.860000 2.482854 350.675698 29.282430 5.037262
6753.655000 6753.660000 1.880000 2.478235 354.398025 29.730450 5.127217
6756.534000 6756.530000 1.890000 2.473904 356.186362 30.010323 5.189284
6759.422000 6759.420000 1.900000 2.469853 357.952038 30.281576 5.248730
6762.316000 6762.320000 1.910000 2.465961 359.749519 30.552154 5.307783
6765.253000 6765.250000 1.930000 2.462164 363.459103 30.984862 5.395231
6768.198000 6768.200000 1.940000 2.458510 365.234137 31.250018 5.455189
6771.156000 6771.160000 1.950000 2.454806 367.050530 31.521779 5.515461
6774.140000 6774.140000 1.960000 2.451093 368.876045 31.796554 5.577513
6777.150000 6777.150000 1.980000 2.447250 372.577249 32.239116 5.670306
6780.176000 6780.170000 1.990000 2.443412 374.403089 32.522007 5.735078
6783.207000 6783.210000 2.000000 2.439465 376.181816 32.805451 5.800492
6786.272000 6786.270000 2.010000 2.435513 378.006494 33.095307 5.866529
6789.343000 6789.350000 2.030000 2.431563 381.631494 33.544658 5.960831
6792.451000 6792.450000 2.040000 2.427205 380.421206 33.584454 5.981225
6795.558000 6795.560000 2.050000 2.423646 383.928605 34.014910 6.071064
6798.699000 6798.700000 2.060000 2.419696 386.922966 34.415866 6.156229
6801.859000 6801.850000 2.080000 2.415825 390.763075 34.892518 6.252958
6805.029000 6805.030000 2.090000 2.411967 392.678463 35.198784 6.318982
6808.223000 6808.220000 2.100000 2.408019 395.081281 35.554483 6.393904
6811.427000 6811.430000 2.110000 2.403345 372.380946 33.668408 6.065292
6814.660000 6814.660000 2.130000 2.399860 398.650429 36.169730 6.526854
6817.921000 6817.920000 2.140000 2.395725 401.594262 36.587843 6.614970
6821.182000 6821.180000 2.150000 2.390580 390.580404 35.767722 6.479028
6824.472000 6824.470000 2.160000 2.387764 402.653949 36.977476 6.711706
6827.785000 6827.780000 2.180000 2.383995 407.673605 37.579752 6.836352
6831.113000 6831.110000 2.190000 2.380269 409.541839 37.892845 6.910424
6834.448000 6834.450000 2.200000 2.376531 411.275027 38.195569 6.981430
6837.817000 6837.820000 2.210000 2.372641 412.534493 38.461894 7.048747
6841.200000 6841.200000 2.230000 2.369458 406.800721 38.048491 6.991066
6844.600000 6844.600000 2.240000 2.364585 417.442567 39.234305 7.227457
6848.032000 6848.030000 2.250000 2.360391 419.431167 39.587060 7.311472
6851.474000 6851.470000 2.260000 2.356052 421.014547 39.909227 7.390052
6854.933000 6854.930000 2.280000 2.351732 424.520123 40.415706 7.504137
6858.404000 6858.400000 2.290000 2.347354 426.309031 40.764078 7.588158
6861.905000 6861.900000 2.300000 2.343283 427.189107 41.014939 7.654954
6865.429000 6865.420000 2.310000 2.338355 429.303525 41.421613 7.751112
6868.967000 6868.960000 2.330000 2.333757 433.244191 41.994471 7.878711
6872.503000 6872.510000 2.340000 2.329129 435.477937 42.406099 7.975887
6876.091000 6876.090000 2.350000 2.324469 437.316405 42.784387 8.065950
6879.682000 6879.680000 2.360000 2.319687 439.123692 43.167160 8.159330
6883.290000 6883.290000 2.380000 2.314885 443.380715 43.795435 8.296791
6886.923000 6886.920000 2.390000 2.310077 445.471134 44.213984 8.396599
6890.569000 6890.570000 2.400000 2.305352 447.313927 44.607142 8.491181
6894.240000 6894.240000 2.410000 2.300683 449.099758 44.994837 8.584303
6897.928000 6897.930000 2.430000 2.295902 452.729357 45.575802 8.714580
6901.642000 6901.640000 2.440000 2.291371 454.568664 45.969008 8.810873
6905.367000 6905.360000 2.450000 2.286897 456.636561 46.385131 8.910469
6909.113000 6909.110000 2.460000 2.282472 458.181379 46.748426 9.000973
6912.874000 6912.870000 2.480000 2.278061 461.585187 47.303905 9.127944
6916.660000 6916.660000 2.490000 2.273767 463.106575 47.663890 9.220540
6920.462000 6920.460000 2.500000 2.269459 464.677253 48.032072 9.313016
6924.281000 6924.280000 2.510000 2.265079 466.391331 48.420812 9.412060
6928.124000 6928.120000 2.530000 2.260737 469.916327 48.999166 9.548073
6931.984000 6931.980000 2.540000 2.256283 471.538744 49.387811 9.648784
6935.865000 6935.860000 2.550000 2.251730 473.212486 49.789303 9.751491
6939.766000 6939.760000 2.560000 2.247184 474.849321 50.189205 9.854275
6943.687000 6943.680000 2.580000 2.242785 478.290458 50.775792 9.994325
6947.616000 6947.610000 2.590000 2.238236 479.894783 51.178318 10.098630
6951.574000 6951.570000 2.600000 2.233638 481.473430 51.583297 10.204372
6955.543000 6955.540000 2.610000 2.229164 483.123323 51.992093 10.312990
6959.544000 6959.540000 2.630000 2.224509 486.598545 52.610546 10.463406
6963.551000 6963.550000 2.640000 2.219810 488.185303 53.030608 10.574535
6967.584000 6967.580000 2.650000 2.215214 489.734200 53.444057 10.684934
6971.630000 6971.630000 2.660000 2.210548 491.296414 53.865014 10.797430
6975.703000 6975.700000 2.680000 2.205857 495.028860 54.529675 10.960293
6979.792000 6979.790000 2.690000 2.201135 496.869942 54.991749 11.082540
6983.900000 6983.900000 2.700000 2.196405 498.581992 55.442836 11.202984
6988.022000 6988.020000 2.710000 2.191746 500.220059 55.884753 11.320294
6992.171000 6992.170000 2.730000 2.187041 503.618587 56.529813 11.480776
6996.332000 6996.330000 2.740000 2.182397 505.240575 56.975760 11.600629
7000.519000 7000.520000 2.750000 2.177729 506.843551 57.423833 11.720981
7004.725000 7004.720000 2.760000 2.172965 508.432139 57.879097 11.844454
7008.941000 7008.940000 2.780000 2.168133 511.773988 58.541747 12.009875
7013.181000 7013.180000 2.790000 2.163365 513.250889 58.991136 12.130855
7017.445000 7017.440000 2.800000 2.158395 514.812890 59.465665 12.259704
7021.723000 7021.720000 2.810000 2.153607 516.285139 59.921864 12.386219
7026.025000 7026.020000 2.830000 2.148704 519.577870 60.600579 12.557090
7030.347000 7030.340000 2.840000 2.143806 520.939998 61.057974 12.684535
7034.677000 7034.670000 2.850000 2.138800 522.469209 61.544631 12.819948
7039.031000 7039.030000 2.860000 2.133888 523.952938 62.022977 12.953270
7043.402000 7043.400000 2.880000 2.128888 527.170948 62.716629 13.131684
7047.803000 7047.800000 2.890000 2.123956 528.891389 63.232283 13.275744
7052.212000 7052.210000 2.900000 2.118859 530.422169 63.739295 13.416967
7056.640000 7056.640000 2.910000 2.113876 531.897427 64.235713 13.557300
7061.088000 7061.090000 2.930000 2.108769 533.856725 64.802353 13.712523
7065.561000 7065.560000 2.940000 2.103993 537.247386 65.526223 13.901975
7070.053000 7070.050000 2.950000 2.099225 535.042218 65.569314 13.949168
7074.563000 7074.560000 2.960000 2.094354 535.707984 65.971427 14.071385
7079.084000 7079.080000 2.980000 2.089254 543.526087 67.276511 14.388582
7083.636000 7083.630000 2.990000 2.084399 545.032449 67.791336 14.537477
7088.196000 7088.190000 3.000000 2.079553 546.953383 68.360769 14.699347
7092.784000 7092.780000 3.010000 2.074676 548.462112 68.884351 14.851521
7097.378000 7097.380000 3.030000 2.069735 551.822022 69.649122 15.056972
7102.000000 7102.000000 3.040000 2.064806 553.273888 70.177576 15.212014
7106.641000 7106.640000 3.050000 2.059912 554.587788 70.689307 15.362781
7111.301000 7111.300000 3.060000 2.055224 555.083265 71.084642 15.480934
7115.989000 7115.980000 3.080000 2.050753 557.513252 71.716331 15.651625
7120.683000 7120.680000 3.090000 2.049148 556.129883 71.653051 15.665427
7125.405000 7125.400000 3.100000 2.066881 546.880597 69.222142 15.150171
7130.130000 7130.130000 3.110000 2.096613 535.201974 65.761374 14.415867
7134.889000 7134.890000 3.130000 2.085977 537.858027 66.792854 14.685117
7139.656000 7139.660000 3.140000 2.076597 543.788462 68.165263 15.028316
7144.461000 7144.460000 3.150000 2.064085 546.471109 69.364305 15.334408
7149.275000 7149.270000 3.160000 2.055240 550.100904 70.446053 15.616931
7154.104000 7154.100000 3.180000 2.045018 556.020119 71.935721 15.990526
7158.953000 7158.950000 3.190000 2.037157 558.245826 72.793661 16.225601
7163.826000 7163.820000 3.200000 2.032739 559.595847 73.292866 16.382979
7168.711000 7168.710000 3.210000 2.030837 560.101392 73.498652 16.473181
7173.618000 7173.620000 3.230000 2.029778 562.671446 73.914189 16.610700
7178.544000 7178.540000 3.240000 2.026708 563.447461 74.243755 16.729248
7183.491000 7183.490000 3.250000 2.022299 564.535784 74.715801 16.880598
7188.450000 7188.450000 3.260000 2.017059 565.281128 75.207444 17.037923
7193.444000 7193.440000 3.280000 2.011801 568.724310 76.064610 17.279376
7198.441000 7198.440000 3.290000 2.006317 570.190049 76.679703 17.466420
7203.463000 7203.460000 3.300000 2.000227 572.103200 77.407114 17.681056
7208.503000 7208.500000 3.310000 1.993631 573.828857 78.154412 17.900186
7213.564000 7213.560000 3.330000 1.987310 577.005761 79.085475 18.163162
7218.643000 7218.640000 3.340000 1.981478 578.144576 79.705072 18.355289
7223.741000 7223.740000 3.350000 1.976101 579.067000 80.262520 18.535923
7228.860000 7228.860000 3.360000 1.970986 581.417636 81.001599 18.759983
7233.990000 7233.990000 3.380000 1.965847 584.045059 81.786920 18.994089
7239.151000 7239.150000 3.390000 1.960711 585.031188 82.346850 19.177409
7244.326000 7244.320000 3.400000 1.955645 586.680704 82.998781 19.382154
7249.522000 7249.520000 3.410000 1.950811 586.961572 83.440510 19.538201
7254.730000 7254.730000 3.430000 1.945735 585.152810 83.606633 19.630471
7259.959000 7259.960000 3.440000 1.941062 590.262990 84.731711 19.947850
7265.214000 7265.210000 3.450000 1.936218 590.597507 85.191749 20.111766
7270.484000 7270.480000 3.460000 1.930922 596.080552 86.439347 20.463008
7275.775000 7275.770000 3.480000 1.925670 599.374308 87.374655 20.740115
7281.083000 7281.080000 3.490000 1.920449 589.632141 86.404064 20.566077
