# XDI/1.0 BlueSky/1.5.3
# Beamline.name: 6BM
# Beamline.xray_source: NSLS-II three-pole wiggler
# Beamline.collimation: paraboloid mirror, 5 nm Rh on 30 nm Pt
# Beamline.focusing: not in use
# Beamline.harmonic_rejection: flat mirror, Si stripe, pitch = 7.0 mrad relative to beam
# Detector.i0: 10 cm N2
# Detector.i1: 25 cm N2
# Detector.i2: 25 cm N2
# Element.symbol: Mn
# Element.edge: K
# Facility.name: NSLS-II
# Facility.energy: 3.0
# Facility.current: 400.7
# Facility.mode: top-off
# Facility.gup: 305081
# Facility.saf: 305123
# Mono.name: Si(111)
# Mono.d_spacing: 3.1353241
# Mono.encoder_resolution: 0.0000050 deg/ct
# Mono.angle_offset: 16.0581090 deg
# Mono.scan_mode: fixed exit
# Mono.scan_type: step
# Mono.direction: forward in energy
# Sample.name: Mn2SiO4
# Sample.prep: Powder in polyethylene glycol pellet
# Sample.x_position: -120.140 mm
# Sample.y_position: 112.312 mm
# Scan.experimenters: Neil Hyatt, Martin Stennett, Lucy Mottram
# Scan.edge_energy: 6539.0
# Scan.start_time: 2019-11-11T17:55:26
# Scan.end_time: 2019-11-12T04:35:59
# Scan.transient_id: 17907
# Scan.uid: f9fee9a5-b81b-4432-9f03-38e695c9cebd
# Scan.plot_hint: ln(I0/It)  --  ln($5/$6)
# Scan.sequence: merge of 3 scans
# Column.1: energy eV
# Column.2: requested_energy eV
# Column.3: measurement_time seconds
# Column.4: mutrans
# Column.5: i0
# Column.6: itrans
# Column.7: irefer
# /////
#  Franklin, Sussex Co., NJ
# -----
# energy   requested_energy   measurement_time   mutrans   i0   itrans   irefer
6338.996000 6339.000000 0.500000 1.997742 89.617231 12.155864 2.789926
6349.015000 6349.000000 0.500000 1.985524 89.764725 12.325608 2.848614
6359.013000 6359.000000 0.500000 1.973440 90.052647 12.515392 2.912686
6369.024000 6369.000000 0.500000 1.961492 90.297727 12.700406 2.975949
6379.016000 6379.000000 0.500000 1.949588 90.481034 12.878473 3.038669
6389.016000 6389.000000 0.500000 1.937625 90.630208 13.054907 3.101184
6399.015000 6399.000000 0.500000 1.925860 90.777294 13.230879 3.164505
6409.020000 6409.000000 0.500000 1.914053 90.945488 13.412893 3.229231
6419.016000 6419.000000 0.500000 1.902494 91.073381 13.587878 3.293497
6429.013000 6429.000000 0.500000 1.890929 91.192477 13.763839 3.358809
6439.010000 6439.000000 0.500000 1.879461 91.317835 13.941688 3.424120
6449.013000 6449.000000 0.500000 1.868048 91.295305 14.098266 3.484898
6459.007000 6459.000000 0.500000 1.856901 91.257720 14.250369 3.545314
6469.004000 6469.000000 0.500000 1.845585 91.657507 14.475663 3.624131
6479.010000 6479.000000 0.500000 1.834495 91.813028 14.662017 3.694779
6489.003000 6489.000000 0.500000 1.823319 91.980534 14.853745 3.765695
6499.003000 6499.000000 0.500000 1.812517 92.134025 15.040094 3.836892
6508.929000 6509.000000 0.500000 1.801849 92.225668 15.216048 3.902235
6510.991000 6511.000000 0.500000 1.800041 92.297176 15.255907 3.916667
6512.988000 6513.000000 0.500000 1.798111 92.319778 15.289138 3.929474
6514.992000 6515.000000 0.500000 1.795938 92.342568 15.326181 3.942505
6516.994000 6517.000000 0.500000 1.794099 92.385498 15.361565 3.955963
6519.496000 6519.000000 0.500000 1.791949 92.428593 15.406547 3.971689
6520.985000 6521.000000 0.500000 1.790191 92.456265 15.433441 3.980814
6523.198000 6523.000000 0.500000 1.788374 92.490802 15.468146 3.992989
6524.983000 6525.000000 0.500000 1.786575 92.471016 15.490598 4.000169
6526.982000 6527.000000 0.500000 1.785016 92.529392 15.525669 4.010372
6528.984000 6529.000000 0.500000 1.783562 92.541152 15.550369 4.016440
6529.085000 6529.100000 0.500000 1.783570 92.536456 15.549195 4.015865
6529.191000 6529.200000 0.500000 1.783428 92.542529 15.551634 4.016986
6529.300000 6529.300000 0.500000 1.783365 92.532984 15.552234 4.016368
6529.415000 6529.400000 0.500000 1.783249 92.532646 15.553982 4.016147
6529.565000 6529.500000 0.500000 1.783211 92.528687 15.554609 4.016695
6529.583000 6529.600000 0.500000 1.783181 92.526634 15.553888 4.016550
6529.682000 6529.700000 0.500000 1.783092 92.528204 15.555529 4.017349
6529.782000 6529.800000 0.500000 1.783005 92.511522 15.554057 4.016526
6529.881000 6529.900000 0.500000 1.782954 92.508781 15.554364 4.015814
6529.983000 6530.000000 0.500000 1.782872 92.510640 15.556008 4.016665
6530.085000 6530.100000 0.500000 1.782857 92.510460 15.556199 4.016904
6530.186000 6530.200000 0.500000 1.782958 92.508749 15.554356 4.016512
6530.285000 6530.300000 0.500000 1.782773 92.519773 15.559060 4.016841
6530.385000 6530.400000 0.500000 1.782654 92.506814 15.558748 4.016902
6530.487000 6530.500000 0.500000 1.782668 92.496801 15.556848 4.015838
6530.586000 6530.600000 0.500000 1.782553 92.493011 15.557987 4.015686
6530.690000 6530.700000 0.500000 1.782514 92.506066 15.560844 4.016233
6530.790000 6530.800000 0.500000 1.782438 92.515637 15.563616 4.016221
6530.886000 6530.900000 0.500000 1.782469 92.509536 15.562102 4.016774
6530.991000 6531.000000 0.500000 1.782387 92.501603 15.562100 4.016281
6531.094000 6531.100000 0.500000 1.782273 92.505183 15.564395 4.015962
6531.192000 6531.200000 0.500000 1.782329 92.487012 15.560464 4.014887
6531.298000 6531.300000 0.500000 1.782215 92.487213 15.562313 4.015342
6531.395000 6531.400000 0.500000 1.782163 92.508873 15.566757 4.016026
6531.499000 6531.500000 0.500000 1.782068 92.506748 15.567877 4.015489
6531.596000 6531.600000 0.500000 1.782099 92.491449 15.564811 4.014211
6531.704000 6531.700000 0.500000 1.782098 92.469666 15.561200 4.013153
6531.799000 6531.800000 0.500000 1.781968 92.473763 15.563852 4.013538
6531.898000 6531.900000 0.500000 1.781995 92.477815 15.564153 4.012834
6532.004000 6532.000000 0.500000 1.781918 92.494522 15.568129 4.013621
6532.100000 6532.100000 0.500000 1.781927 92.491684 15.567553 4.013172
6532.205000 6532.200000 0.500000 1.781812 92.490267 15.569103 4.013308
6532.305000 6532.300000 0.500000 1.781746 92.482574 15.568830 4.012023
6532.404000 6532.400000 0.500000 1.781696 92.482840 15.569601 4.010955
6532.504000 6532.500000 0.500000 1.781718 92.475825 15.568129 4.011039
6532.607000 6532.600000 0.500000 1.781659 92.469379 15.567980 4.010480
6532.702000 6532.700000 0.500000 1.781627 92.478910 15.570034 4.010170
6532.806000 6532.800000 0.500000 1.781634 92.484933 15.571105 4.009859
6532.906000 6532.900000 0.500000 1.781503 92.477649 15.571710 4.009709
6533.003000 6533.000000 0.500000 1.781526 92.468753 15.569910 4.008201
6533.102000 6533.100000 0.500000 1.781527 92.458659 15.568199 4.006601
6533.203000 6533.200000 0.500000 1.781433 92.450603 15.568287 4.006283
6533.301000 6533.300000 0.500000 1.781444 92.469686 15.571353 4.005712
6533.402000 6533.400000 0.500000 1.781417 92.475412 15.572736 4.006003
6533.503000 6533.500000 0.500000 1.781400 92.484952 15.574588 4.004926
6533.603000 6533.600000 0.500000 1.781421 92.480375 15.573535 4.003828
6533.700000 6533.700000 0.500000 1.781359 92.499608 15.577701 4.003942
6533.802000 6533.800000 0.500000 1.781295 92.567900 15.590029 4.005463
6533.899000 6533.900000 0.500000 1.781255 92.578276 15.592433 4.004818
6533.998000 6534.000000 0.500000 1.781279 92.583143 15.592881 4.003992
6534.102000 6534.100000 0.500000 1.781293 92.582341 15.592558 4.003009
6534.199000 6534.200000 0.500000 1.781340 92.581176 15.591566 4.001199
6534.295000 6534.300000 0.500000 1.781405 92.586731 15.591537 3.999881
6534.401000 6534.400000 0.500000 1.781236 92.576896 15.592442 3.997490
6534.496000 6534.500000 0.500000 1.781293 92.565682 15.589730 3.995379
6534.596000 6534.600000 0.500000 1.781315 92.574946 15.590950 3.994182
6534.699000 6534.700000 0.500000 1.781362 92.561583 15.587963 3.991510
6534.799000 6534.800000 0.500000 1.781451 92.543854 15.583610 3.988020
6534.900000 6534.900000 0.500000 1.781395 92.568475 15.588609 3.986470
6534.997000 6535.000000 0.500000 1.781432 92.552944 15.585406 3.984404
6535.103000 6535.100000 0.500000 1.781412 92.545795 15.584510 3.981367
6535.198000 6535.200000 0.500000 1.781456 92.544243 15.583568 3.978935
6535.302000 6535.300000 0.500000 1.781535 92.563538 15.585578 3.976165
6535.401000 6535.400000 0.500000 1.781565 92.642916 15.598544 3.975505
6535.500000 6535.500000 0.500000 1.781653 92.645110 15.597548 3.972114
6535.602000 6535.600000 0.500000 1.781698 92.638477 15.595692 3.966870
6535.705000 6535.700000 0.500000 1.781689 92.658600 15.599219 3.962765
6535.800000 6535.800000 0.500000 1.781751 92.658885 15.598363 3.959137
6535.901000 6535.900000 0.500000 1.781736 92.656277 15.598134 3.953286
6536.005000 6536.000000 0.500000 1.781798 92.660562 15.597870 3.946787
6536.100000 6536.100000 0.500000 1.781884 92.666677 15.597614 3.940418
6536.203000 6536.200000 0.500000 1.782058 92.639990 15.590369 3.930736
6536.303000 6536.300000 0.500000 1.782086 92.645014 15.590750 3.922025
6536.404000 6536.400000 0.500000 1.782207 92.665378 15.592309 3.912418
6536.499000 6536.500000 0.500000 1.782342 92.655084 15.588504 3.901884
6536.602000 6536.600000 0.500000 1.782464 92.640440 15.584101 3.887249
6536.702000 6536.700000 0.500000 1.782647 92.618445 15.577554 3.870378
6536.799000 6536.800000 0.500000 1.782787 92.639135 15.578871 3.855125
6536.902000 6536.900000 0.500000 1.783003 92.647261 15.576807 3.834112
6537.002000 6537.000000 0.500000 1.783279 92.640722 15.571463 3.810031
6537.098000 6537.100000 0.500000 1.783477 92.640918 15.568426 3.783781
6537.198000 6537.200000 0.500000 1.783763 92.636289 15.563164 3.755141
6537.301000 6537.300000 0.500000 1.784136 92.650573 15.559640 3.722438
6537.396000 6537.400000 0.500000 1.784545 92.735309 15.567699 3.692250
6537.497000 6537.500000 0.500000 1.784979 92.742961 15.562079 3.656265
6537.599000 6537.600000 0.500000 1.785611 92.736734 15.551146 3.618122
6537.695000 6537.700000 0.500000 1.786311 92.728042 15.539151 3.582036
6537.799000 6537.800000 0.500000 1.787066 92.734810 15.528207 3.544995
6537.900000 6537.900000 0.500000 1.787958 92.742048 15.515543 3.509156
6537.997000 6538.000000 0.500000 1.789026 92.714967 15.494792 3.475977
6538.096000 6538.100000 0.500000 1.790066 92.701765 15.476488 3.444047
6538.200000 6538.200000 0.500000 1.791376 92.726935 15.459926 3.414195
6538.295000 6538.300000 0.500000 1.792683 92.733850 15.441807 3.387624
6538.394000 6538.400000 0.500000 1.794093 92.727285 15.419016 3.360977
6538.504000 6538.500000 0.500000 1.795381 92.698082 15.393277 3.334375
6538.599000 6538.600000 0.500000 1.796722 92.700871 15.373970 3.312904
6538.700000 6538.700000 0.500000 1.798067 92.719695 15.356087 3.291644
6538.804000 6538.800000 0.500000 1.799135 92.737929 15.342376 3.272636
6538.901000 6538.900000 0.500000 1.800030 92.715719 15.325202 3.254397
6538.997000 6539.000000 0.500000 1.800760 92.700412 15.311898 3.238687
6539.105000 6539.100000 0.500000 1.801295 92.689645 15.301388 3.222330
6539.205000 6539.200000 0.500000 1.801731 92.702333 15.297010 3.209540
6539.301000 6539.300000 0.500000 1.801802 92.731183 15.300698 3.198773
6539.403000 6539.400000 0.500000 1.801666 92.724155 15.301718 3.186767
6539.502000 6539.500000 0.500000 1.801296 92.712903 15.305397 3.176001
6539.599000 6539.600000 0.500000 1.800837 92.697316 15.309559 3.166499
6539.702000 6539.700000 0.500000 1.800234 92.695844 15.318837 3.158379
6539.805000 6539.800000 0.500000 1.799367 92.711500 15.334899 3.151097
6539.902000 6539.900000 0.500000 1.798477 92.729332 15.351242 3.145849
6540.001000 6540.000000 0.500000 1.797622 92.731959 15.364841 3.139155
6540.103000 6540.100000 0.500000 1.796730 92.715401 15.376150 3.132875
6540.199000 6540.200000 0.500000 1.795917 92.704365 15.386369 3.126515
6540.298000 6540.300000 0.500000 1.795123 92.696813 15.397427 3.120590
6540.400000 6540.400000 0.500000 1.794590 92.700073 15.406258 3.115068
6540.501000 6540.500000 0.500000 1.794153 92.717684 15.416004 3.110077
6540.598000 6540.600000 0.500000 1.793882 92.710794 15.418865 3.105525
6540.701000 6540.700000 0.500000 1.793764 92.705704 15.419884 3.100201
6540.798000 6540.800000 0.500000 1.793723 92.697198 15.419124 3.095621
6540.895000 6540.900000 0.500000 1.793828 92.698161 15.417644 3.091800
6540.998000 6541.000000 0.500000 1.794170 92.707434 15.413908 3.087519
6541.099000 6541.100000 0.500000 1.794553 92.697864 15.406480 3.084278
6541.196000 6541.200000 0.500000 1.794998 92.686124 15.397719 3.080847
6541.298000 6541.300000 0.500000 1.795437 92.690973 15.391615 3.078352
6541.397000 6541.400000 0.500000 1.796148 92.698809 15.382264 3.074907
6541.496000 6541.500000 0.500000 1.796944 92.684466 15.367612 3.071773
6541.601000 6541.600000 0.500000 1.797778 92.691107 15.355277 3.068391
6541.700000 6541.700000 0.500000 1.798821 92.670777 15.336322 3.063892
6541.801000 6541.800000 0.500000 1.799865 92.682975 15.322168 3.059369
6541.900000 6541.900000 0.500000 1.801083 92.697807 15.305896 3.054001
6542.001000 6542.000000 0.500000 1.802499 92.704662 15.285791 3.047845
6542.098000 6542.100000 0.500000 1.803900 92.680468 15.260606 3.039612
6542.202000 6542.200000 0.500000 1.805694 92.673341 15.231337 3.031081
6542.303000 6542.300000 0.500000 1.807644 92.685665 15.203850 3.021905
6542.402000 6542.400000 0.500000 1.809817 92.702796 15.174108 3.011702
6542.501000 6542.500000 0.500000 1.812085 92.691648 15.136996 2.998856
6542.604000 6542.600000 0.500000 1.814893 92.674199 15.092359 2.985099
6542.701000 6542.700000 0.500000 1.817868 92.664461 15.046688 2.970485
6542.802000 6542.800000 0.500000 1.821122 92.670666 14.998426 2.954729
6542.905000 6542.900000 0.500000 1.824764 92.689894 14.946094 2.938055
6543.004000 6543.000000 0.500000 1.828763 92.693468 14.887170 2.920747
6543.103000 6543.100000 0.500000 1.833067 92.655476 14.817112 2.900370
6543.205000 6543.200000 0.500000 1.837818 92.652004 14.745782 2.880813
6543.303000 6543.300000 0.500000 1.843025 92.677488 14.675006 2.861379
6543.402000 6543.400000 0.500000 1.848532 92.692491 14.594319 2.839278
6543.504000 6543.500000 0.500000 1.854437 92.683045 14.506122 2.816332
6543.602000 6543.600000 0.500000 1.860900 92.672997 14.412939 2.793338
6543.697000 6543.700000 0.500000 1.867575 92.681134 14.322457 2.769848
6543.800000 6543.800000 0.500000 1.874720 92.672547 14.213449 2.743560
6543.903000 6543.900000 0.500000 1.882789 92.677253 14.100604 2.716388
6543.998000 6544.000000 0.500000 1.890864 92.666633 13.987913 2.689460
6544.101000 6544.100000 0.500000 1.899574 92.651477 13.860980 2.658881
6544.200000 6544.200000 0.500000 1.908878 92.660966 13.734927 2.630131
6544.299000 6544.300000 0.500000 1.918445 92.666768 13.608307 2.601110
6544.398000 6544.400000 0.500000 1.928044 92.670881 13.474586 2.569432
6544.499000 6544.500000 0.500000 1.938365 92.658605 13.337107 2.538019
6544.594000 6544.600000 0.500000 1.948371 92.657853 13.207011 2.508841
6544.699000 6544.700000 0.500000 1.958708 92.655693 13.066348 2.477034
6544.800000 6544.800000 0.500000 1.969014 92.644845 12.929999 2.444623
6544.897000 6544.900000 0.500000 1.979144 92.633218 12.801532 2.415705
6544.998000 6545.000000 0.500000 1.989030 92.655196 12.676547 2.385900
6545.099000 6545.100000 0.500000 1.998940 92.665984 12.552697 2.356569
6545.196000 6545.200000 0.500000 2.008529 92.668518 12.439369 2.329778
6545.296000 6545.300000 0.500000 2.017531 92.651741 12.321533 2.302769
6545.402000 6545.400000 0.500000 2.026840 92.644856 12.204566 2.274184
6545.501000 6545.500000 0.500000 2.035562 92.633049 12.097772 2.248447
6545.598000 6545.600000 0.500000 2.043982 92.633407 11.999087 2.224279
6545.699000 6545.700000 0.500000 2.052223 92.647415 11.900399 2.199829
6545.802000 6545.800000 0.500000 2.060404 92.652322 11.804685 2.175469
6545.898000 6545.900000 0.500000 2.068188 92.635836 11.712930 2.152745
6546.002000 6546.000000 0.500000 2.075878 92.620184 11.618745 2.128702
6546.103000 6546.100000 0.500000 2.083663 92.606178 11.526367 2.105100
6546.202000 6546.200000 0.500000 2.091092 92.633473 11.446674 2.084590
6546.300000 6546.300000 0.500000 2.098508 92.645313 11.362164 2.062952
6546.402000 6546.400000 0.500000 2.106053 92.635580 11.275826 2.040273
6546.500000 6546.500000 0.500000 2.113674 92.616378 11.188829 2.018329
6546.601000 6546.600000 0.500000 2.121167 92.635580 11.106972 1.997078
6546.705000 6546.700000 0.500000 2.129029 92.619627 11.016165 1.973976
6546.803000 6546.800000 0.500000 2.136633 92.717942 10.945914 1.954846
6546.900000 6546.900000 0.500000 2.144241 92.731260 10.863942 1.933788
6547.001000 6547.000000 0.500000 2.151860 92.746830 10.782202 1.913189
6547.100000 6547.100000 0.500000 2.159700 92.759329 10.701628 1.891716
6547.200000 6547.200000 0.500000 2.167278 92.747427 10.618129 1.871453
6547.301000 6547.300000 0.500000 2.175107 92.731788 10.534078 1.850393
6547.400000 6547.400000 0.500000 2.182802 92.709347 10.450519 1.829541
6547.499000 6547.500000 0.500000 2.190612 92.720347 10.372056 1.809437
6547.600000 6547.600000 0.500000 2.198150 92.723238 10.291574 1.789188
6547.699000 6547.700000 0.500000 2.206031 92.736846 10.214121 1.769389
6547.793000 6547.800000 0.500000 2.213558 92.735327 10.139215 1.750241
6547.899000 6547.900000 0.500000 2.221712 92.707164 10.051199 1.728463
6547.999000 6548.000000 0.500000 2.229665 92.716228 9.973081 1.709499
6548.098000 6548.100000 0.500000 2.237576 92.726068 9.895288 1.689725
6548.199000 6548.200000 0.500000 2.245622 92.712117 9.812024 1.669308
6548.296000 6548.300000 0.500000 2.254254 92.706358 9.730099 1.649076
6548.394000 6548.400000 0.500000 2.262696 92.712543 9.650587 1.630304
6548.500000 6548.500000 0.500000 2.271498 92.789394 9.571232 1.610799
6548.599000 6548.600000 0.500000 2.280327 92.782061 9.486925 1.590412
6548.699000 6548.700000 0.500000 2.289199 92.751081 9.400799 1.571001
6548.798000 6548.800000 0.500000 2.297838 92.744673 9.319012 1.552022
6548.903000 6548.900000 0.500000 2.306906 92.769178 9.235740 1.532034
6548.996000 6549.000000 0.500000 2.315502 92.790011 9.163039 1.515200
6549.101000 6549.100000 0.500000 2.324316 92.790740 9.078996 1.495823
6549.204000 6549.200000 0.500000 2.332930 92.771739 8.998300 1.477101
6549.300000 6549.300000 0.500000 2.341315 92.766509 8.925846 1.460382
6549.401000 6549.400000 0.500000 2.349425 92.779061 8.853725 1.443975
6549.504000 6549.500000 0.500000 2.357346 92.797938 8.785178 1.427773
6549.601000 6549.600000 0.500000 2.364752 92.779871 8.719527 1.412050
6549.702000 6549.700000 0.500000 2.371436 92.731333 8.656439 1.397287
6549.807000 6549.800000 0.500000 2.378005 92.768128 8.601794 1.383220
6549.904000 6549.900000 0.500000 2.383770 92.779515 8.554423 1.371416
6550.004000 6550.000000 0.500000 2.388756 92.771487 8.510593 1.359698
6550.106000 6550.100000 0.500000 2.393339 92.775325 8.471850 1.349607
6550.204000 6550.200000 0.500000 2.397310 92.779098 8.439122 1.340300
6550.300000 6550.300000 0.500000 2.400549 92.833685 8.417338 1.332354
6550.404000 6550.400000 0.500000 2.403241 92.873830 8.397611 1.325389
6550.502000 6550.500000 0.500000 2.405530 92.878598 8.379363 1.318496
6550.599000 6550.600000 0.500000 2.407334 92.878439 8.364325 1.312884
6550.700000 6550.700000 0.500000 2.408698 92.847950 8.349890 1.306166
6550.803000 6550.800000 0.500000 2.409634 92.844003 8.341688 1.301540
6550.897000 6550.900000 0.500000 2.410445 92.856068 8.336154 1.297058
6551.000000 6551.000000 0.500000 2.411002 92.867496 8.332462 1.293281
6551.101000 6551.100000 0.500000 2.411297 92.874029 8.330605 1.289255
6551.199000 6551.200000 0.500000 2.411636 92.854600 8.326070 1.284950
6551.296000 6551.300000 0.500000 2.411842 92.848721 8.323819 1.281313
6551.401000 6551.400000 0.500000 2.411869 92.835323 8.322379 1.277477
6551.497000 6551.500000 0.500000 2.411974 92.858235 8.323572 1.274302
6551.598000 6551.600000 0.500000 2.412215 92.867988 8.322417 1.270991
6551.699000 6551.700000 0.500000 2.412400 92.846154 8.318925 1.266603
6551.798000 6551.800000 0.500000 2.412596 92.840716 8.316836 1.262933
6551.896000 6551.900000 0.500000 2.412678 92.849860 8.316961 1.260050
6551.999000 6552.000000 0.500000 2.412767 92.856292 8.316791 1.256923
6552.098000 6552.100000 0.500000 2.412779 92.844769 8.315686 1.253346
6552.196000 6552.200000 0.500000 2.412450 92.805661 8.314874 1.250105
6552.301000 6552.300000 0.500000 2.411800 92.843222 8.323722 1.248096
6552.400000 6552.400000 0.500000 2.410840 92.877196 8.334616 1.246782
6552.501000 6552.500000 0.500000 2.409467 92.853050 8.344011 1.245380
6552.601000 6552.600000 0.500000 2.407650 92.823575 8.357031 1.244454
6552.704000 6552.700000 0.500000 2.405156 92.806743 8.376176 1.244512
6552.799000 6552.800000 0.500000 2.402389 92.821653 8.399935 1.246343
6552.904000 6552.900000 0.500000 2.398812 92.852720 8.433795 1.248235
6553.005000 6553.000000 0.500000 2.394828 92.843115 8.466609 1.250646
6553.103000 6553.100000 0.500000 2.390533 92.835947 8.501446 1.253570
6553.202000 6553.200000 0.500000 2.385768 92.837591 8.542980 1.257250
6553.305000 6553.300000 0.500000 2.380508 92.840536 8.588476 1.261561
6553.401000 6553.400000 0.500000 2.375080 92.817889 8.632183 1.266020
6553.502000 6553.500000 0.500000 2.369534 92.812053 8.680439 1.270670
6553.605000 6553.600000 0.500000 2.363704 92.808294 8.731344 1.276658
6553.701000 6553.700000 0.500000 2.358043 92.829593 8.781758 1.282208
6553.800000 6553.800000 0.500000 2.352528 92.849395 8.833371 1.288120
6553.898000 6553.900000 0.500000 2.346959 92.836891 8.880667 1.293557
6554.001000 6554.000000 0.500000 2.341702 92.831587 8.927558 1.299400
6554.097000 6554.100000 0.500000 2.336715 92.829636 8.970662 1.304699
6554.200000 6554.200000 0.500000 2.331909 92.833020 9.015486 1.310350
6554.296000 6554.300000 0.500000 2.327436 92.818716 9.053301 1.315147
6554.399000 6554.400000 0.500000 2.323351 92.825960 9.091755 1.319943
6554.498000 6554.500000 0.500000 2.319378 92.828897 9.128819 1.325083
6554.599000 6554.600000 0.500000 2.315505 92.829081 9.163443 1.329777
6554.695000 6554.700000 0.500000 2.312015 92.819492 9.194540 1.333274
6554.798000 6554.800000 0.500000 2.308410 92.817067 9.227729 1.338990
6554.901000 6554.900000 0.500000 2.305081 92.830486 9.260200 1.343812
6554.999000 6555.000000 0.500000 2.302143 92.813641 9.285979 1.347982
6555.098000 6555.100000 0.500000 2.299018 92.827344 9.316176 1.352500
6555.198000 6555.200000 0.500000 2.296113 92.836389 9.343505 1.356901
6555.294000 6555.300000 0.500000 2.293228 92.828226 9.369550 1.361523
6555.397000 6555.400000 0.500000 2.290572 92.823468 9.394307 1.366818
6555.502000 6555.500000 0.500000 2.287927 92.822977 9.419375 1.371140
6555.599000 6555.600000 0.500000 2.285427 92.830723 9.443487 1.376384
6555.699000 6555.700000 0.500000 2.282788 92.842353 9.469944 1.381260
6555.802000 6555.800000 0.500000 2.280192 92.843495 9.494541 1.386650
6555.898000 6555.900000 0.500000 2.277865 92.818658 9.513720 1.390884
6555.999000 6556.000000 0.500000 2.275424 92.812583 9.536419 1.396519
6556.104000 6556.100000 0.500000 2.272915 92.830686 9.562851 1.402167
6556.202000 6556.200000 0.500000 2.270540 92.840888 9.586280 1.407282
6556.301000 6556.300000 0.500000 2.268197 92.834984 9.608381 1.412358
6556.404000 6556.400000 0.500000 2.265688 92.819243 9.630891 1.418062
6556.502000 6556.500000 0.500000 2.263193 92.810971 9.653601 1.423687
6556.601000 6556.600000 0.500000 2.260741 92.829592 9.679585 1.429732
6556.706000 6556.700000 0.500000 2.258018 92.848222 9.708496 1.436665
6556.802000 6556.800000 0.500000 2.255063 92.847471 9.736189 1.443183
6556.902000 6556.900000 0.500000 2.252230 92.832025 9.762773 1.449164
6557.003000 6557.000000 0.500000 2.249169 92.818262 9.791472 1.455909
6557.103000 6557.100000 0.500000 2.245870 92.842406 9.825737 1.463695
6557.198000 6557.200000 0.500000 2.242724 92.850425 9.857339 1.470960
6557.302000 6557.300000 0.500000 2.239141 92.839429 9.892231 1.478364
6557.403000 6557.400000 0.500000 2.235325 92.834566 9.929527 1.486417
6557.499000 6557.500000 0.500000 2.231731 92.825998 9.963636 1.493454
6557.600000 6557.600000 0.500000 2.227849 92.837121 10.004704 1.501644
6557.703000 6557.700000 0.500000 2.223902 92.850220 10.045299 1.509964
6557.797000 6557.800000 0.500000 2.220114 92.836747 10.081839 1.517105
6557.901000 6557.900000 0.500000 2.216103 92.837877 10.122892 1.525468
6558.000000 6558.000000 0.500000 2.212243 92.832956 10.160719 1.533486
6558.100000 6558.100000 0.500000 2.208578 92.832284 10.198067 1.540742
6558.197000 6558.200000 0.500000 2.204794 92.841983 10.238282 1.548429
6558.301000 6558.300000 0.500000 2.201068 92.832733 10.275371 1.555839
6558.396000 6558.400000 0.500000 2.197517 92.822961 10.310334 1.563096
6558.496000 6558.500000 0.500000 2.194221 92.829611 10.345380 1.569157
6558.599000 6558.600000 0.500000 2.190749 92.839272 10.382438 1.576336
6558.699000 6558.700000 0.500000 2.187625 92.833719 10.414301 1.583512
6558.797000 6558.800000 0.500000 2.184688 92.839345 10.445456 1.588772
6558.898000 6558.900000 0.500000 2.181856 92.844677 10.475401 1.594666
6558.999000 6559.000000 0.500000 2.179445 92.834284 10.499573 1.600166
6559.095000 6559.100000 0.500000 2.177274 92.822359 10.520897 1.603657
6559.200000 6559.200000 0.500000 2.175259 92.828516 10.543160 1.608315
6559.302000 6559.300000 0.500000 2.173441 92.844464 10.564625 1.612943
6559.401000 6559.400000 0.500000 2.171895 92.844923 10.580401 1.616155
6559.503000 6559.500000 0.500000 2.170593 92.834248 10.593353 1.618424
6559.602000 6559.600000 0.500000 2.169459 92.820838 10.603659 1.620833
6559.700000 6559.700000 0.500000 2.168483 92.818781 10.613851 1.622362
6559.800000 6559.800000 0.500000 2.167769 92.815532 10.620956 1.624825
6559.903000 6559.900000 0.500000 2.167198 92.841350 10.630050 1.626563
6560.002000 6560.000000 0.500000 2.166674 92.822575 10.633565 1.627123
6560.100000 6560.100000 0.500000 2.166218 92.822759 10.638272 1.627348
6560.203000 6560.200000 0.500000 2.166014 92.806736 10.638676 1.628519
6560.303000 6560.300000 0.500000 2.165840 92.786981 10.638228 1.628987
6560.401000 6560.400000 0.500000 2.165785 92.780484 10.638074 1.628895
6560.506000 6560.500000 0.500000 2.165772 92.761729 10.636059 1.628775
6560.604000 6560.600000 0.500000 2.165793 92.739402 10.633228 1.628059
6560.702000 6560.700000 0.500000 2.165952 92.713367 10.628609 1.628166
6560.803000 6560.800000 0.500000 2.165904 92.680622 10.625315 1.627297
6560.901000 6560.900000 0.500000 2.165976 92.671143 10.623527 1.625781
6560.995000 6561.000000 0.500000 2.166133 92.676515 10.622494 1.626334
6561.102000 6561.100000 0.500000 2.166239 92.731045 10.627570 1.626785
6561.202000 6561.200000 0.500000 2.166264 92.779473 10.632872 1.627557
6561.299000 6561.300000 0.500000 2.166224 92.807171 10.636469 1.627566
6561.401000 6561.400000 0.500000 2.166104 92.838902 10.641362 1.628170
6561.500000 6561.500000 0.500000 2.166064 92.869133 10.645257 1.628146
6561.595000 6561.600000 0.500000 2.166048 93.023160 10.663123 1.630704
6561.696000 6561.700000 0.500000 2.165864 93.035037 10.666468 1.631114
6561.801000 6561.800000 0.500000 2.165771 93.025232 10.666368 1.631216
6561.897000 6561.900000 0.500000 2.165618 93.019619 10.667288 1.630292
6561.997000 6562.000000 0.500000 2.165522 93.038728 10.670550 1.630602
6562.098000 6562.100000 0.500000 2.165392 93.018640 10.669592 1.630165
6562.195000 6562.200000 0.500000 2.165352 93.024999 10.670708 1.629724
6562.298000 6562.300000 0.500000 2.165288 93.030056 10.672054 1.629463
6562.399000 6562.400000 0.500000 2.165289 93.027011 10.671686 1.629161
6562.497000 6562.500000 0.500000 2.165389 93.026920 10.670654 1.628549
6562.599000 6562.600000 0.500000 2.165411 93.044489 10.672404 1.628401
6562.702000 6562.700000 0.500000 2.165522 93.041043 10.670808 1.627312
6562.798000 6562.800000 0.500000 2.165696 93.038733 10.668712 1.627277
6562.901000 6562.900000 0.500000 2.165923 93.029920 10.665192 1.625653
6563.001000 6563.000000 0.500000 2.166130 93.019347 10.661856 1.624990
6563.099000 6563.100000 0.500000 2.166383 93.024128 10.659728 1.624072
6563.202000 6563.200000 0.500000 2.166718 93.031657 10.656941 1.623133
6563.300000 6563.300000 0.500000 2.166984 93.035335 10.654586 1.622969
6563.402000 6563.400000 0.500000 2.167324 93.126633 10.661415 1.623606
6563.501000 6563.500000 0.500000 2.167511 93.130380 10.659859 1.622648
6563.603000 6563.600000 0.500000 2.167798 93.142022 10.658108 1.621902
6563.701000 6563.700000 0.500000 2.168097 93.148768 10.655745 1.621807
6563.802000 6563.800000 0.500000 2.168265 93.149751 10.654025 1.620585
6563.900000 6563.900000 0.500000 2.168553 93.133787 10.649153 1.619516
6563.998000 6564.000000 0.500000 2.168919 93.136689 10.645704 1.618907
6564.100000 6564.100000 0.500000 2.168996 93.126618 10.643623 1.618416
6564.194000 6564.200000 0.500000 2.169104 93.128326 10.642744 1.618023
6564.299000 6564.300000 0.500000 2.169254 93.131632 10.641485 1.617630
6564.397000 6564.400000 0.500000 2.169349 93.141884 10.641646 1.617246
6564.501000 6564.500000 0.500000 2.169397 93.127376 10.639465 1.616804
6564.599000 6564.600000 0.500000 2.169274 93.124866 10.640421 1.616728
6564.700000 6564.700000 0.500000 2.169056 93.123129 10.642525 1.616531
6564.793000 6564.800000 0.500000 2.168811 93.125024 10.645287 1.617425
6564.901000 6564.900000 0.500000 2.168602 93.113528 10.646316 1.617373
6565.001000 6565.000000 0.500000 2.168293 93.132610 10.651858 1.617933
6565.097000 6565.100000 0.500000 2.167859 93.116968 10.654603 1.618210
6565.204000 6565.200000 0.500000 2.167337 93.116936 10.660240 1.618880
6565.299000 6565.300000 0.500000 2.166767 93.127041 10.667374 1.619924
6565.400000 6565.400000 0.500000 2.166181 93.139938 10.675176 1.621277
6565.504000 6565.500000 0.500000 2.165518 93.127073 10.680893 1.621852
6565.602000 6565.600000 0.500000 2.164764 93.111647 10.687330 1.622708
6565.703000 6565.700000 0.500000 2.163980 93.091209 10.693409 1.623273
6565.801000 6565.800000 0.500000 2.163174 93.095784 10.702359 1.624783
6565.901000 6565.900000 0.500000 2.162346 93.114553 10.713608 1.626743
6566.008000 6566.000000 0.500000 2.161413 93.124723 10.724985 1.629198
6566.102000 6566.100000 0.500000 2.160521 93.130746 10.735201 1.630263
6566.202000 6566.200000 0.500000 2.159512 93.119696 10.744496 1.631749
6566.300000 6566.300000 0.500000 2.158621 93.110879 10.752896 1.633043
6566.396000 6566.400000 0.500000 2.157632 93.089820 10.760648 1.633374
6566.500000 6566.500000 0.500000 2.156665 93.092116 10.771626 1.635816
6566.601000 6566.600000 0.500000 2.155722 93.098735 10.782598 1.637964
6566.699000 6566.700000 0.500000 2.154845 93.117643 10.794180 1.639769
6566.801000 6566.800000 0.500000 2.153884 93.091484 10.801473 1.640329
6566.897000 6566.900000 0.500000 2.153105 93.095230 10.810292 1.642578
6567.003000 6567.000000 0.500000 2.152200 93.096871 10.820731 1.643692
6567.099000 6567.100000 0.500000 2.151304 93.077862 10.827907 1.645453
6567.199000 6567.200000 0.500000 2.150236 93.092230 10.841139 1.647050
6567.298000 6567.300000 0.500000 2.149397 93.091554 10.850018 1.648384
6567.395000 6567.400000 0.500000 2.148476 93.096642 10.860344 1.650373
6567.498000 6567.500000 0.500000 2.147532 93.093062 10.870634 1.652399
6567.602000 6567.600000 0.500000 2.146617 93.090083 10.880207 1.653981
6567.700000 6567.700000 0.500000 2.145744 93.098818 10.890842 1.655640
6567.798000 6567.800000 0.500000 2.144742 93.074059 10.898671 1.656679
6567.901000 6567.900000 0.500000 2.143864 93.081574 10.909128 1.658851
6567.997000 6568.000000 0.500000 2.142837 93.081571 10.920331 1.661236
6568.103000 6568.100000 0.500000 2.141910 93.063085 10.928359 1.662346
6568.201000 6568.200000 0.500000 2.140935 93.072144 10.940053 1.663770
6568.302000 6568.300000 0.500000 2.140032 93.095094 10.952775 1.666321
6568.408000 6568.400000 0.500000 2.139110 93.099775 10.963746 1.668280
6568.502000 6568.500000 0.500000 2.138134 93.071828 10.970848 1.669775
6568.604000 6568.600000 0.500000 2.137261 93.041223 10.976813 1.670719
6568.706000 6568.700000 0.500000 2.136361 93.038522 10.986653 1.672349
6568.804000 6568.800000 0.500000 2.135329 93.062944 11.000756 1.675136
6568.902000 6568.900000 0.500000 2.134462 93.314730 11.039972 1.681496
6569.005000 6569.000000 0.700000 2.133436 130.309306 15.432796 2.350143
6570.090000 6570.080000 0.710000 2.122862 132.160723 15.817629 2.412546
6571.202000 6571.180000 0.730000 2.112417 135.894684 16.435221 2.508771
6572.291000 6572.290000 0.740000 2.103428 137.740180 16.809320 2.566879
6573.427000 6573.430000 0.750000 2.097289 139.649903 17.146900 2.616948
6574.586000 6574.580000 0.760000 2.095326 141.519315 17.410962 2.652971
6575.771000 6575.760000 0.780000 2.097136 145.223995 17.834531 2.710540
6576.961000 6576.950000 0.790000 2.101263 147.124803 17.993621 2.726911
6578.169000 6578.160000 0.800000 2.106292 149.051424 18.137775 2.740714
6579.399000 6579.390000 0.810000 2.112510 150.900248 18.248955 2.748872
6580.651000 6580.640000 0.830000 2.118568 154.630380 18.586990 2.791890
6581.918000 6581.910000 0.840000 2.123745 156.539874 18.719474 2.803137
6583.211000 6583.200000 0.850000 2.128495 158.419731 18.854390 2.817244
6584.518000 6584.510000 0.860000 2.133189 160.253363 18.983474 2.835557
6585.845000 6585.830000 0.880000 2.139601 164.024316 19.305567 2.890734
6587.191000 6587.180000 0.890000 2.147285 165.650641 19.347973 2.908916
6588.554000 6588.540000 0.900000 2.154800 167.785675 19.450512 2.942422
6589.944000 6589.930000 0.910000 2.160924 169.633456 19.544715 2.973117
6591.339000 6591.330000 0.930000 2.164723 173.427811 19.906325 3.043352
6592.762000 6592.750000 0.940000 2.167958 175.337512 20.060453 3.080888
6594.199000 6594.190000 0.950000 2.172382 177.199281 20.184193 3.112474
6595.661000 6595.650000 0.960000 2.170082 179.131847 20.451199 3.168810
6597.132000 6597.130000 0.980000 2.163132 182.861328 21.021986 3.271568
6598.640000 6598.630000 0.990000 2.157498 184.790161 21.364099 3.336475
6600.148000 6600.140000 1.000000 2.153372 186.860105 21.692630 3.395357
6601.693000 6601.680000 1.010000 2.151117 188.364207 21.916707 3.433307
6603.244000 6603.240000 1.030000 2.149938 192.471438 22.420972 3.512008
6604.824000 6604.810000 1.040000 2.147733 194.443201 22.700932 3.553226
6606.404000 6606.400000 1.050000 2.142845 196.269332 23.025955 3.599711
6608.022000 6608.010000 1.060000 2.135872 198.196902 23.415165 3.656245
6609.659000 6609.650000 1.080000 2.127658 201.987693 24.059771 3.749354
6611.310000 6611.300000 1.090000 2.119206 203.867069 24.489272 3.809062
6612.978000 6612.970000 1.100000 2.111859 205.724543 24.894809 3.866914
6614.662000 6614.650000 1.110000 2.105912 207.668255 25.280107 3.923061
6616.372000 6616.360000 1.130000 2.101125 211.510192 25.871382 4.013515
6618.102000 6618.090000 1.140000 2.097626 213.588349 26.217140 4.069518
6619.841000 6619.830000 1.150000 2.095328 215.482063 26.510658 4.119611
6621.613000 6621.600000 1.160000 2.093792 217.393040 26.786790 4.169196
6623.392000 6623.380000 1.180000 2.092645 221.179244 27.284568 4.255232
6625.187000 6625.180000 1.190000 2.091779 223.089724 27.544097 4.306098
6627.009000 6627.000000 1.200000 2.090739 224.983989 27.806891 4.358727
6628.841000 6628.840000 1.210000 2.089096 226.670930 28.061316 4.409920
6630.709000 6630.700000 1.230000 2.087136 230.652294 28.610348 4.506517
6632.588000 6632.580000 1.240000 2.085621 232.556363 28.890225 4.559233
6634.488000 6634.480000 1.250000 2.084872 234.498020 29.153347 4.607539
6636.406000 6636.400000 1.260000 2.084864 236.574957 29.411911 4.650392
6638.335000 6638.330000 1.280000 2.085085 240.370708 29.877219 4.726416
6640.298000 6640.290000 1.290000 2.084772 242.203723 30.114516 4.768291
6642.266000 6642.260000 1.300000 2.083047 244.203296 30.415431 4.821810
6644.269000 6644.260000 1.310000 2.080061 246.032631 30.735019 4.883630
6646.278000 6646.270000 1.330000 2.076797 249.887897 31.318557 4.989229
6648.304000 6648.300000 1.340000 2.073708 251.790203 31.654544 5.058138
6650.359000 6650.350000 1.350000 2.070992 253.683618 31.979518 5.125119
6652.425000 6652.420000 1.360000 2.068718 255.576036 32.291309 5.189836
6654.516000 6654.510000 1.380000 2.066458 259.332739 32.840100 5.291702
6656.620000 6656.610000 1.390000 2.064173 261.250473 33.158622 5.353837
6658.746000 6658.740000 1.400000 2.062178 263.182029 33.470552 5.413469
6660.898000 6660.890000 1.410000 2.060690 265.139046 33.769701 5.468393
6663.060000 6663.050000 1.430000 2.059772 268.877789 34.277306 5.554143
6665.241000 6665.230000 1.440000 2.059554 270.780858 34.527511 5.596556
6667.453000 6667.440000 1.450000 2.059336 272.789434 34.791215 5.638640
6669.668000 6669.660000 1.460000 2.058830 274.601914 35.040012 5.680037
6671.910000 6671.900000 1.480000 2.057689 278.404746 35.566075 5.764237
6674.164000 6674.160000 1.490000 2.055497 280.400108 35.899484 5.820927
6676.447000 6676.440000 1.500000 2.052364 282.220501 36.245802 5.880660
6678.749000 6678.740000 1.510000 2.048444 284.196820 36.643456 5.951663
6681.061000 6681.050000 1.530000 2.044198 288.085466 37.302956 6.068113
6683.394000 6683.390000 1.540000 2.039602 289.820162 37.700133 6.143706
6685.741000 6685.740000 1.550000 2.035337 291.740905 38.111982 6.222612
6688.124000 6688.120000 1.560000 2.031852 293.707787 38.503072 6.302378
6690.513000 6690.510000 1.580000 2.028722 297.422834 39.112327 6.419467
6692.918000 6692.920000 1.590000 2.025485 299.312054 39.488186 6.500739
6695.352000 6695.350000 1.600000 2.022213 301.328836 39.884807 6.586756
6697.799000 6697.800000 1.610000 2.019028 303.098975 40.247052 6.668284
6700.267000 6700.270000 1.630000 2.015845 306.884724 40.879421 6.792831
6702.761000 6702.760000 1.640000 2.012632 308.855967 41.274702 6.878718
6705.269000 6705.270000 1.650000 2.009179 310.684507 41.662359 6.962433
6707.788000 6707.790000 1.660000 2.005399 312.585785 42.075859 7.048797
6710.343000 6710.340000 1.680000 2.001426 316.292537 42.744789 7.174838
6712.904000 6712.900000 1.690000 1.997562 318.272981 43.179114 7.259405
6715.488000 6715.490000 1.700000 1.994057 320.100215 43.578999 7.337769
6718.091000 6718.090000 1.710000 1.990958 322.012283 43.975521 7.415033
6720.704000 6720.710000 1.730000 1.988129 325.713887 44.607050 7.530878
6723.348000 6723.350000 1.740000 1.985377 327.555725 44.982787 7.604628
6726.006000 6726.010000 1.750000 1.982887 329.422318 45.352000 7.676150
6728.692000 6728.690000 1.760000 1.980691 331.335929 45.715755 7.747455
6731.392000 6731.390000 1.780000 1.978620 335.085024 46.328980 7.861273
6734.106000 6734.110000 1.790000 1.976295 336.897043 46.687673 7.932196
6736.837000 6736.840000 1.800000 1.973666 338.719974 47.063847 8.008036
6739.598000 6739.600000 1.810000 1.970755 340.683291 47.474640 8.091569
6742.372000 6742.370000 1.830000 1.967892 344.205054 48.103072 8.215457
6745.166000 6745.170000 1.840000 1.965297 346.274255 48.517721 8.303670
6747.978000 6747.980000 1.850000 1.962842 348.413695 48.937266 8.396527
6750.812000 6750.810000 1.860000 1.960381 350.293309 49.322602 8.485014
6753.665000 6753.660000 1.880000 1.957564 353.877892 49.967891 8.617669
6756.536000 6756.530000 1.890000 1.954630 355.681666 50.369999 8.710011
6759.424000 6759.420000 1.900000 1.951472 357.494601 50.787034 8.803720
6762.314000 6762.320000 1.910000 1.947878 359.163065 51.207479 8.897026
6765.255000 6765.250000 1.930000 1.943817 362.953659 51.958865 9.048967
6768.196000 6768.200000 1.940000 1.939476 364.988300 52.477483 9.159991
6771.164000 6771.160000 1.950000 1.935227 367.091311 53.004634 9.275018
6774.136000 6774.140000 1.960000 1.931186 368.839824 53.472545 9.380212
6777.154000 6777.150000 1.980000 1.927317 372.529954 54.217074 9.535487
6780.170000 6780.170000 1.990000 1.923666 374.225043 54.662887 9.640065
6783.207000 6783.210000 2.000000 1.920230 376.145083 55.132369 9.748661
6786.266000 6786.270000 2.010000 1.917121 377.799525 55.547399 9.846219
6789.353000 6789.350000 2.030000 1.914336 381.666747 56.272709 9.999724
6792.451000 6792.450000 2.040000 1.911309 380.486414 56.268647 10.021555
6795.558000 6795.560000 2.050000 1.908520 384.385290 57.004024 10.174646
6798.707000 6798.700000 2.060000 1.905264 387.256827 57.617244 10.306794
6801.849000 6801.850000 2.080000 1.901561 391.012266 58.391561 10.464798
6805.037000 6805.030000 2.090000 1.897547 392.912545 58.911571 10.576014
6808.225000 6808.220000 2.100000 1.893475 394.856206 59.444627 10.690222
6811.429000 6811.430000 2.110000 1.889152 371.761355 56.209952 10.125947
6814.658000 6814.660000 2.130000 1.885865 398.239035 60.411707 10.902602
6817.917000 6817.920000 2.140000 1.882250 401.199385 61.081209 11.043896
6821.178000 6821.180000 2.150000 1.878163 389.812912 59.590464 10.793796
6824.472000 6824.470000 2.160000 1.875542 402.085904 61.628293 11.186619
6827.783000 6827.780000 2.180000 1.872255 406.976907 62.583144 11.386018
6831.115000 6831.110000 2.190000 1.868861 408.910938 63.094302 11.506505
6834.456000 6834.450000 2.200000 1.865594 410.492265 63.545684 11.616235
6837.823000 6837.820000 2.210000 1.862127 411.732112 63.958767 11.722905
6841.202000 6841.200000 2.230000 1.859114 406.457721 63.330301 11.637884
6844.596000 6844.600000 2.240000 1.855109 416.608780 65.171799 12.004441
6848.026000 6848.030000 2.250000 1.851463 418.272448 65.671141 12.129476
6851.474000 6851.470000 2.260000 1.847842 420.051330 66.190134 12.257356
6854.935000 6854.930000 2.280000 1.844347 423.401961 66.951619 12.431349
6858.408000 6858.400000 2.290000 1.840711 425.217764 67.483774 12.562885
6861.911000 6861.900000 2.300000 1.837482 425.885450 67.808548 12.657359
6865.425000 6865.420000 2.310000 1.833817 427.924833 68.383150 12.796951
6868.967000 6868.960000 2.330000 1.830186 431.838094 69.259579 12.995303
6872.517000 6872.510000 2.340000 1.826520 433.627738 69.801795 13.129185
6876.097000 6876.090000 2.350000 1.822848 435.656437 70.386369 13.272881
6879.684000 6879.680000 2.360000 1.819177 437.174689 70.891414 13.400181
6883.294000 6883.290000 2.380000 1.815310 441.419242 71.856918 13.616319
6886.927000 6886.920000 2.390000 1.811348 443.282964 72.447085 13.759125
6890.573000 6890.570000 2.400000 1.807407 444.961973 73.008470 13.897285
6894.242000 6894.240000 2.410000 1.803492 446.918516 73.617067 14.045535
6897.930000 6897.930000 2.430000 1.799710 450.408947 74.473196 14.241661
6901.642000 6901.640000 2.440000 1.795901 452.078776 75.034699 14.382110
6905.363000 6905.360000 2.450000 1.792080 453.865797 75.619798 14.528310
6909.113000 6909.110000 2.460000 1.788328 455.237927 76.133318 14.659443
6912.874000 6912.870000 2.480000 1.784647 458.910961 77.030582 14.866194
6916.662000 6916.660000 2.490000 1.780919 460.678892 77.615748 15.014935
6920.460000 6920.460000 2.500000 1.777039 462.329706 78.196404 15.163055
6924.283000 6924.280000 2.510000 1.773207 463.752757 78.738441 15.304839
6928.126000 6928.120000 2.530000 1.769374 467.567452 79.691107 15.529590
6931.986000 6931.980000 2.540000 1.765396 469.000815 80.254162 15.678168
6935.869000 6935.860000 2.550000 1.761331 470.726004 80.877571 15.840377
6939.768000 6939.760000 2.560000 1.757390 472.613136 81.522702 16.005594
6943.685000 6943.680000 2.580000 1.753499 476.408227 82.497452 16.237162
6947.614000 6947.610000 2.590000 1.749670 477.751228 83.047429 16.386685
6951.574000 6951.570000 2.600000 1.745868 479.387994 83.649433 16.549541
6955.545000 6955.540000 2.610000 1.742050 481.044268 84.259433 16.711400
6959.546000 6959.540000 2.630000 1.738236 484.402230 85.172002 16.937638
6963.553000 6963.550000 2.640000 1.734360 486.147314 85.810692 17.110539
6967.582000 6967.580000 2.650000 1.730440 488.018411 86.479188 17.289837
6971.630000 6971.630000 2.660000 1.726504 489.564164 87.095439 17.458774
6975.701000 6975.700000 2.680000 1.722467 493.042228 88.068788 17.700736
6979.794000 6979.790000 2.690000 1.718456 494.573576 88.697613 17.875012
6983.902000 6983.900000 2.700000 1.714602 496.104968 89.315584 18.045827
6988.024000 6988.020000 2.710000 1.710638 497.740504 89.966121 18.223978
6992.178000 6992.170000 2.730000 1.706719 500.993219 90.910023 18.463277
6996.334000 6996.330000 2.740000 1.702772 502.694692 91.579175 18.645361
7000.529000 7000.520000 2.750000 1.698914 503.963576 92.165739 18.813264
7004.725000 7004.720000 2.760000 1.694910 505.829508 92.877490 19.004083
7008.947000 7008.940000 2.780000 1.690949 508.984522 93.827971 19.248227
7013.189000 7013.180000 2.790000 1.686914 510.391999 94.468050 19.426675
7017.447000 7017.440000 2.800000 1.682816 511.991814 95.153307 19.616219
7021.725000 7021.720000 2.810000 1.678695 513.399068 95.808663 19.802736
7026.031000 7026.020000 2.830000 1.674754 516.654830 96.797650 20.056125
7030.345000 7030.340000 2.840000 1.670685 517.884489 97.422964 20.238292
7034.675000 7034.670000 2.850000 1.666637 519.453778 98.114230 20.434153
7039.035000 7039.030000 2.860000 1.662482 520.809475 98.779932 20.627344
7043.404000 7043.400000 2.880000 1.658336 524.083207 99.813687 20.899386
7047.803000 7047.800000 2.890000 1.654355 525.202539 100.425927 21.081542
7052.214000 7052.210000 2.900000 1.650274 526.788578 101.141181 21.287861
7056.646000 7056.640000 2.910000 1.646103 528.149478 101.826277 21.488613
7061.096000 7061.090000 2.930000 1.641944 529.712267 102.553193 21.699387
7065.567000 7065.560000 2.940000 1.637943 533.091015 103.621157 21.983952
7070.057000 7070.050000 2.950000 1.633885 530.640148 103.564255 22.029494
7074.563000 7074.560000 2.960000 1.629680 531.284463 104.126723 22.206539
7079.086000 7079.080000 2.980000 1.625483 538.955687 106.074806 22.685158
7083.636000 7083.630000 2.990000 1.621344 539.909449 106.703193 22.879856
7088.196000 7088.190000 3.000000 1.617116 541.807089 107.531784 23.119790
7092.782000 7092.780000 3.010000 1.612915 543.603184 108.341282 23.356722
7097.381000 7097.380000 3.030000 1.608823 547.079196 109.480887 23.664025
7102.002000 7102.000000 3.040000 1.604710 548.310294 110.179680 23.878919
7106.647000 7106.640000 3.050000 1.600575 549.631794 110.903185 24.098752
7111.307000 7111.300000 3.060000 1.596964 550.096356 111.398234 24.257003
7115.991000 7115.980000 3.080000 1.593549 552.359629 112.238147 24.489917
7120.683000 7120.680000 3.090000 1.598742 551.722746 111.528779 24.379069
7125.405000 7125.400000 3.100000 1.613569 542.504011 108.051553 23.642987
7130.134000 7130.130000 3.110000 1.611451 530.712576 105.927140 23.216325
7134.895000 7134.890000 3.130000 1.602645 533.229691 107.370350 23.602097
7139.663000 7139.660000 3.140000 1.597366 539.192481 109.146292 24.055752
7144.468000 7144.460000 3.150000 1.591055 542.068082 110.423307 24.406841
7149.277000 7149.270000 3.160000 1.584683 545.578630 111.849357 24.790772
7154.102000 7154.100000 3.180000 1.579599 551.371777 113.612709 25.250937
7158.953000 7158.950000 3.190000 1.575725 553.347657 114.462282 25.506771
7163.824000 7163.820000 3.200000 1.573202 554.206352 114.929354 25.682378
7168.711000 7168.710000 3.210000 1.570693 554.629027 115.306008 25.836555
7173.626000 7173.620000 3.230000 1.567246 557.219848 116.244936 26.117353
7178.544000 7178.540000 3.240000 1.562989 558.015699 116.907666 26.337801
7183.498000 7183.490000 3.250000 1.558522 558.924098 117.622249 26.567604
7188.457000 7188.450000 3.260000 1.553791 559.780352 118.361070 26.808130
7193.442000 7193.440000 3.280000 1.549005 562.947686 119.600791 27.163718
7198.443000 7198.440000 3.290000 1.544350 564.532587 120.497238 27.440744
7203.465000 7203.460000 3.300000 1.539801 566.221256 121.409232 27.726475
7208.508000 7208.500000 3.310000 1.535545 568.073336 122.326179 28.012131
7213.564000 7213.560000 3.330000 1.531405 571.363360 123.544546 28.368891
7218.641000 7218.640000 3.340000 1.527137 572.156027 124.244694 28.606391
7223.739000 7223.740000 3.350000 1.522761 572.858585 124.942743 28.848848
7228.867000 7228.860000 3.360000 1.518361 575.328366 126.035224 29.183390
7233.990000 7233.990000 3.380000 1.513854 578.030628 127.198748 29.533776
7239.155000 7239.150000 3.390000 1.509586 578.831407 127.920330 29.784880
7244.321000 7244.320000 3.400000 1.505351 580.335830 128.796631 30.070949
7249.519000 7249.520000 3.410000 1.501093 580.618721 129.408765 30.294251
7254.732000 7254.730000 3.430000 1.496664 578.754902 129.566072 30.412627
7259.966000 7259.960000 3.440000 1.492560 584.108229 131.303055 30.906706
7265.214000 7265.210000 3.450000 1.488479 583.817535 131.774212 31.101475
7270.486000 7270.480000 3.460000 1.484072 589.532442 133.651676 31.630587
7275.771000 7275.770000 3.480000 1.479685 593.135736 135.059064 32.051257
7281.081000 7281.080000 3.490000 1.475213 583.926238 133.557455 31.780110
