# XDI/1.0 BlueSky/1.10.0 BMM/2023-1.0-py310-tiled
# Beamline.name: BMM (06BM) -- Beamline for Materials Measurement (NIST)
# Beamline.xray_source: NSLS-II three-pole wiggler
# Beamline.collimation: paraboloid mirror, 5 nm Rh on 30 nm Pt
# Beamline.focusing: not in use
# Beamline.harmonic_rejection: flat mirror, Pt stripe, pitch = 7.0 mrad relative to beam
# Beamline.software: Bluesky 1.10.0, Ophyd 1.7.0, DataBroker 2.0.0b13, Python 3.10.8, 2023-1.0-py310-tiled
# Detector.I0: 10 cm N2
# Detector.I1: 25 cm N2
# Detector.I2: 25 cm N2
# Element.symbol: Ge
# Element.edge: K
# Element.reference: Ge
# Element.reference_material: GeO2
# Facility.name: NSLS-II
# Facility.energy: 3.0
# Facility.current: 399.3
# Facility.mode: top-off
# Facility.GUP: 301027
# Facility.SAF: 310583
# Facility.cycle: 2023-2
# Mono.name: Si(111)
# Mono.d_spacing: 3.1351860
# Mono.encoder_resolution: 0.0000050 deg/ct
# Mono.angle_offset: 16.0754326 deg
# Mono.scan_mode: pseudo channel cut
# Mono.scan_type: step
# Mono.direction: forward in energy
# Sample.name: GeO2
# Sample.prep: PEG pellet
# Sample.x: 109.138 mm
# Sample.y: 153.150 mm
# Sample.SDD_position: 205.000 mm
# Scan.experimenters: Bruce Ravel
# Scan.edge_energy: 11103.1
# Scan.start_time: 2023-05-28T18:35:44
# Scan.end_time: 2023-05-28T18:43:33
# Scan.transient_id: 78917
# Scan.uid: 8cf39e21-e6ac-4343-be0b-623baccc9895
# Scan.plot_hint: ln(It/Ir)  --  ln($6/$7)
# Column.1: energy eV
# Column.2: requested_energy eV
# Column.3: measurement_time seconds
# Column.4: xmu 
# Column.5: I0 nA
# Column.6: It nA
# Column.7: Ir nA
# ///////////
# sample courtesy Martin Stennett, University of Sheffield
# -----------
# energy  requested_energy  measurement_time  xmu  I0  It  Ir
  10903.129  10903.100  0.500  0.667800  80.442710  130.358507  66.852472
  10913.179  10913.100  0.500  0.665941  80.264675  130.136678  66.862928
  10923.180  10923.100  0.500  0.664178  80.080612  129.897117  66.857610
  10933.169  10933.100  0.500  0.662467  80.064614  129.936207  66.992202
  10943.104  10943.100  0.500  0.660803  79.909762  129.769667  67.017794
  10953.120  10953.100  0.500  0.659024  79.716647  129.499427  66.997300
  10963.118  10963.100  0.500  0.657324  79.549495  129.290982  67.003274
  10973.118  10973.100  0.500  0.655696  79.369638  129.064340  66.994774
  10983.138  10983.100  0.500  0.653994  79.186776  128.832219  66.988251
  10993.144  10993.100  0.500  0.652349  79.015726  128.626183  66.991229
  11003.138  11003.100  0.500  0.650717  78.833410  128.394033  66.979503
  11013.139  11013.100  0.500  0.649121  78.663636  128.168343  66.968575
  11023.170  11023.100  0.500  0.647527  78.480669  127.942923  66.957428
  11033.113  11033.100  0.500  0.645981  78.300937  127.715331  66.941778
  11043.138  11043.100  0.500  0.644630  78.123043  127.491544  66.914764
  11053.177  11053.100  0.500  0.643266  77.947104  127.247920  66.878057
  11063.127  11063.100  0.500  0.642158  77.763326  127.007578  66.825801
  11073.112  11073.100  0.500  0.641436  77.586996  126.794543  66.761872
  11075.093  11075.100  0.500  0.641331  77.535528  126.721083  66.730216
  11077.102  11077.100  0.500  0.641339  77.460770  126.616189  66.674403
  11079.089  11079.100  0.500  0.641396  77.471261  126.646090  66.686334
  11081.126  11081.100  0.500  0.641475  77.437672  126.601738  66.657747
  11083.558  11083.100  0.500  0.641633  77.393423  126.540983  66.615223
  11085.287  11085.100  0.500  0.641896  77.363087  126.487888  66.569793
  11087.214  11087.100  0.500  0.642271  77.321560  126.445227  66.522338
  11089.125  11089.100  0.500  0.642778  77.261940  126.362410  66.445097
  11091.069  11091.100  0.500  0.643490  77.191161  126.243297  66.335241
  11093.089  11093.100  0.500  0.644565  77.210475  126.300210  66.293797
  11093.361  11093.400  0.500  0.644682  77.207964  126.298717  66.285275
  11093.661  11093.700  0.500  0.644844  77.197318  126.273667  66.261418
  11093.965  11094.000  0.500  0.645110  77.192813  126.266793  66.240174
  11094.265  11094.300  0.500  0.645346  77.192246  126.275452  66.229056
  11094.564  11094.600  0.500  0.645591  77.178892  126.256686  66.203032
  11094.869  11094.900  0.500  0.645876  77.169744  126.253105  66.182283
  11095.157  11095.200  0.500  0.646092  77.159312  126.226416  66.153977
  11095.467  11095.500  0.500  0.646301  77.153515  126.212248  66.132776
  11095.788  11095.800  0.500  0.646623  77.140372  126.190867  66.100265
  11096.072  11096.100  0.500  0.646911  77.138059  126.189337  66.080442
  11096.371  11096.400  0.500  0.647188  77.141798  126.201654  66.068590
  11096.676  11096.700  0.500  0.647585  77.123274  126.181361  66.031720
  11096.975  11097.000  0.500  0.647849  77.104522  126.143617  65.994559
  11097.275  11097.300  0.500  0.648258  77.081528  126.110299  65.950111
  11097.590  11097.600  0.500  0.648675  77.056565  126.068075  65.900589
  11097.879  11097.900  0.500  0.649037  77.039817  126.049128  65.866825
  11098.173  11098.200  0.500  0.649477  77.014086  126.004908  65.814720
  11098.473  11098.500  0.500  0.649969  77.009928  125.993673  65.776480
  11098.773  11098.800  0.500  0.650450  77.016495  126.001499  65.748958
  11099.061  11099.100  0.500  0.650977  77.026957  126.032330  65.730377
  11099.377  11099.400  0.500  0.651631  77.033251  126.046801  65.694984
  11099.693  11099.700  0.500  0.652207  77.040991  126.064330  65.666274
  11099.971  11100.000  0.500  0.652832  77.052867  126.075937  65.631283
  11100.276  11100.300  0.500  0.653517  77.042676  126.054832  65.575360
  11100.570  11100.600  0.500  0.654305  77.032799  126.040066  65.516010
  11100.870  11100.900  0.500  0.655075  77.028376  126.032592  65.461739
  11101.175  11101.200  0.500  0.655903  77.024750  126.048122  65.415626
  11101.485  11101.500  0.500  0.656867  77.019211  126.024873  65.340522
  11101.780  11101.800  0.500  0.657794  77.012642  126.022999  65.279030
  11102.080  11102.100  0.500  0.658887  76.999482  126.009596  65.200777
  11102.390  11102.400  0.500  0.660053  76.996457  125.991785  65.115593
  11102.690  11102.700  0.500  0.661281  76.988114  125.988298  65.033851
  11102.984  11103.000  0.500  0.662594  76.984786  125.979836  64.944171
  11103.300  11103.300  0.500  0.664162  76.974965  125.975753  64.840287
  11103.595  11103.600  0.500  0.665785  76.965162  125.956494  64.725269
  11103.894  11103.900  0.500  0.667521  76.948193  125.930395  64.599604
  11104.194  11104.200  0.500  0.669493  76.926408  125.899672  64.456636
  11104.494  11104.500  0.500  0.671689  76.907768  125.874378  64.302330
  11104.789  11104.800  0.500  0.674115  76.884182  125.839503  64.128713
  11105.105  11105.100  0.500  0.676980  76.856972  125.789754  63.919942
  11105.399  11105.400  0.500  0.679900  76.852879  125.774474  63.725861
  11105.694  11105.700  0.500  0.683214  76.833748  125.743669  63.499470
  11105.994  11106.000  0.500  0.687035  76.821140  125.735096  63.253003
  11106.294  11106.300  0.500  0.691257  76.815414  125.737008  62.987431
  11106.599  11106.600  0.500  0.695971  76.814649  125.742386  62.693907
  11106.899  11106.900  0.500  0.701472  76.812254  125.739336  62.348434
  11107.199  11107.200  0.500  0.707835  76.812033  125.736137  61.951424
  11107.494  11107.500  0.500  0.715108  76.817298  125.742471  61.505552
  11107.794  11107.800  0.500  0.724066  76.830188  125.767954  60.969438
  11108.110  11108.100  0.500  0.734849  76.846325  125.799330  60.330586
  11108.389  11108.400  0.500  0.746620  76.848242  125.800806  59.625261
  11108.684  11108.700  0.500  0.761140  76.844309  125.811508  58.770773
  11109.000  11109.000  0.500  0.779198  76.848427  125.810342  57.718466
  11109.295  11109.300  0.500  0.799190  76.836516  125.798635  56.570788
  11109.589  11109.600  0.500  0.822433  76.835411  125.796900  55.270286
  11109.890  11109.900  0.500  0.850784  76.821293  125.781754  53.718874
  11110.190  11110.200  0.500  0.881857  76.817900  125.765755  52.068693
  11110.479  11110.500  0.500  0.918760  76.789386  125.722323  50.164915
  11110.796  11110.800  0.500  0.960900  76.765774  125.690531  48.082702
  11111.090  11111.100  0.500  1.001216  76.745752  125.661066  46.171943
  11111.391  11111.400  0.500  1.042944  76.728856  125.633030  44.275038
  11111.680  11111.700  0.500  1.082590  76.711528  125.615494  42.548129
  11111.991  11112.000  0.500  1.116700  76.718335  125.616652  41.121668
  11112.286  11112.300  0.500  1.144403  76.723122  125.622768  40.000035
  11112.597  11112.600  0.500  1.165048  76.729610  125.631781  39.185515
  11112.903  11112.900  0.500  1.176890  76.738279  125.649105  38.729547
  11113.187  11113.200  0.500  1.180638  76.742731  125.660664  38.588239
  11113.493  11113.500  0.500  1.177020  76.749371  125.663133  38.728846
  11113.809  11113.800  0.500  1.167027  76.735930  125.656133  39.115616
  11114.094  11114.100  0.500  1.152558  76.724213  125.634870  39.679000
  11114.405  11114.400  0.500  1.134846  76.729728  125.641881  40.390291
  11114.716  11114.700  0.500  1.115511  76.719542  125.634961  41.176596
  11115.000  11115.000  0.500  1.097486  76.717921  125.620662  41.920735
  11115.306  11115.300  0.500  1.080135  76.705442  125.611867  42.651484
  11115.612  11115.600  0.500  1.064156  76.699170  125.602952  43.335405
  11115.902  11115.900  0.500  1.050631  76.689708  125.590763  43.921228
  11116.197  11116.200  0.500  1.038411  76.688615  125.586901  44.459887
  11116.514  11116.500  0.500  1.026608  76.678144  125.569752  44.981591
  11116.814  11116.800  0.500  1.016843  76.669905  125.573448  45.424332
  11117.099  11117.100  0.500  1.007978  76.667558  125.567133  45.826516
  11117.399  11117.400  0.500  1.000581  76.655825  125.540388  46.156895
  11117.700  11117.700  0.500  0.994672  76.645639  125.522096  46.423676
  11117.995  11118.000  0.500  0.990881  76.626099  125.487739  46.587237
  11118.301  11118.300  0.500  0.989446  76.606123  125.449917  46.640091
  11118.607  11118.600  0.500  0.990783  76.581743  125.431498  46.570961
  11118.897  11118.900  0.500  0.994402  76.563210  125.402724  46.392053
  11119.193  11119.200  0.500  1.000285  76.547393  125.373872  46.109307
  11119.504  11119.500  0.500  1.007810  76.534767  125.357858  45.757793
  11119.778  11119.800  0.500  1.014909  76.531419  125.366359  45.437224
  11120.089  11120.100  0.500  1.021492  76.540916  125.382562  45.144894
  11120.395  11120.400  0.500  1.025889  76.556897  125.412649  44.957621
  11120.686  11120.700  0.500  1.027675  76.561507  125.417216  44.879023
  11120.992  11121.000  0.500  1.027314  76.565452  125.419272  44.895974
  11121.282  11121.300  0.500  1.025276  76.565163  125.420402  44.987962
  11121.588  11121.600  0.500  1.022653  76.555634  125.408840  45.101957
  11121.889  11121.900  0.500  1.020075  76.545619  125.403950  45.216655
  11122.195  11122.200  0.500  1.018065  76.548219  125.396854  45.305059
  11122.496  11122.500  0.500  1.016897  76.545286  125.394062  45.356998
  11122.791  11122.800  0.500  1.016533  76.536045  125.386912  45.370903
  11123.092  11123.100  0.500  1.016423  76.530401  125.385073  45.375227
  11123.399  11123.400  0.500  1.016170  76.517275  125.351233  45.374486
  11123.710  11123.700  0.500  1.015228  76.508309  125.342349  45.414023
  11124.006  11124.000  0.500  1.013482  76.500698  125.339843  45.492467
  11124.301  11124.300  0.500  1.010785  76.492135  125.331853  45.612434
  11124.602  11124.600  0.500  1.007181  76.487879  125.321123  45.773201
  11124.903  11124.900  0.500  1.003136  76.484900  125.315710  45.956746
  11125.204  11125.200  0.500  0.998736  76.475654  125.296198  46.152217
  11125.505  11125.500  0.500  0.994427  76.473135  125.285146  46.347387
  11125.807  11125.800  0.500  0.990034  76.462934  125.270473  46.546009
  11126.113  11126.100  0.500  0.985771  76.456800  125.263274  46.742166
  11126.409  11126.400  0.500  0.981677  76.445768  125.250657  46.929175
  11126.704  11126.700  0.500  0.977988  76.443422  125.242113  47.099413
  11127.011  11127.000  0.500  0.974474  76.431848  125.222266  47.257749
  11127.307  11127.300  0.500  0.971858  76.423655  125.217662  47.379793
  11127.597  11127.600  0.500  0.969616  76.633552  125.569755  47.619656
  11127.914  11127.900  0.500  0.968064  76.719185  125.711051  47.747280
  11128.103  11128.100  0.500  0.967397  76.727118  125.722410  47.783449
  11129.103  11129.090  0.500  0.967284  76.713702  125.701889  47.781049
  11130.093  11130.090  0.500  0.970328  76.702851  125.687516  47.630370
  11131.105  11131.110  0.500  0.974317  76.686303  125.655703  47.428746
  11132.159  11132.160  0.500  0.975627  76.667703  125.643983  47.362247
  11133.220  11133.220  0.500  0.972711  76.644700  125.622468  47.492408
  11134.313  11134.300  0.500  0.966755  76.624368  125.606807  47.770163
  11135.427  11135.400  0.500  0.959256  76.593086  125.549665  48.107833
  11136.553  11136.520  0.500  0.951576  76.576044  125.519698  48.467170
  11137.684  11137.660  0.500  0.944322  76.545010  125.492284  48.809354
  11138.821  11138.810  0.500  0.936902  76.531406  125.466189  49.162677
  11139.991  11139.990  0.500  0.927871  76.503984  125.438021  49.597531
  11141.193  11141.180  0.500  0.918460  76.484363  125.410563  50.055547
  11142.401  11142.400  0.500  0.910390  76.461010  125.387936  50.452011
  11143.625  11143.630  0.500  0.904424  76.443722  125.351801  50.739286
  11144.898  11144.880  0.500  0.900688  76.415478  125.314860  50.914201
  11146.166  11146.150  0.500  0.898110  76.398712  125.296861  51.038294
  11147.461  11147.440  0.500  0.896057  76.370236  125.255260  51.126191
  11148.773  11148.750  0.500  0.894846  76.339184  125.210892  51.170017
  11150.085  11150.080  0.500  0.893907  76.315393  125.185490  51.207696
  11151.435  11151.430  0.500  0.893077  76.293289  125.150094  51.235721
  11152.802  11152.800  0.500  0.892824  76.265647  125.123029  51.237617
  11154.180  11154.180  0.500  0.893286  76.246406  125.091415  51.200961
  11155.601  11155.590  0.500  0.894173  76.219475  125.055602  51.140922
  11157.028  11157.010  0.500  0.895692  76.189356  125.021996  51.049593
  11158.461  11158.450  0.500  0.898767  76.158654  124.979335  50.875518
  11159.933  11159.910  0.500  0.903152  76.136327  124.938819  50.636452
  11161.388  11161.390  0.500  0.907139  76.102118  124.900089  50.419368
  11162.876  11162.890  0.500  0.909689  76.078112  124.866618  50.277473
  11164.419  11164.410  0.500  0.912360  76.044126  124.823445  50.126006
  11165.957  11165.950  0.500  0.916433  76.024052  124.795258  49.911027
  11167.528  11167.510  0.500  0.921931  75.992331  124.739807  49.615301
  11169.088  11169.080  0.500  0.928337  75.970521  124.709919  49.286643
  11170.687  11170.680  0.500  0.934995  75.934008  124.670526  48.944143
  11172.308  11172.290  0.500  0.940542  75.911285  124.639199  48.661140
  11173.945  11173.930  0.500  0.944897  75.883964  124.602824  48.435557
  11175.594  11175.580  0.500  0.947629  75.858364  124.561746  48.287498
  11177.249  11177.250  0.500  0.948566  75.820862  124.525544  48.228238
  11178.943  11178.940  0.500  0.948230  75.787875  124.479831  48.226731
  11180.675  11180.650  0.500  0.947417  75.753774  124.440142  48.250563
  11182.418  11182.380  0.500  0.946341  75.720787  124.407083  48.289682
  11184.151  11184.130  0.500  0.945204  75.691936  124.365400  48.328443
  11185.895  11185.890  0.500  0.944137  75.654860  124.312160  48.359297
  11187.684  11187.680  0.500  0.943767  75.625651  124.273399  48.362117
  11189.495  11189.480  0.500  0.944102  75.590795  124.228594  48.328516
  11191.328  11191.310  0.500  0.944830  75.560660  124.175400  48.272639
  11193.167  11193.150  0.500  0.945169  75.527474  124.123511  48.236123
  11195.018  11195.010  0.500  0.944973  75.491296  124.077425  48.227665
  11196.896  11196.890  0.500  0.944147  75.452795  124.037696  48.252062
  11198.798  11198.790  0.500  0.942918  75.422554  123.994052  48.294400
  11200.743  11200.710  0.500  0.941260  75.386485  123.954500  48.359101
  11202.651  11202.650  0.500  0.939018  75.354807  123.898680  48.445815
  11204.625  11204.610  0.500  0.936828  75.315843  123.855855  48.535278
  11206.583  11206.580  0.500  0.934931  75.277286  123.798959  48.605099
  11208.596  11208.580  0.500  0.933510  75.241867  123.745361  48.653116
  11210.594  11210.590  0.500  0.932360  75.201807  123.692950  48.688476
  11212.637  11212.620  0.500  0.930923  75.163602  123.649208  48.741264
  11214.685  11214.680  0.500  0.929247  75.129772  123.602387  48.804497
  11216.762  11216.750  0.500  0.927394  75.088294  123.554372  48.876024
  11218.866  11218.840  0.500  0.925498  75.046439  123.500217  48.947326
  11220.956  11220.950  0.500  0.923758  75.011322  123.435334  49.006799
  11223.078  11223.080  0.500  0.922102  74.970509  123.398052  49.073222
  11225.246  11225.220  0.500  0.920076  74.926528  123.340660  49.149847
  11227.403  11227.390  0.500  0.917789  74.878725  123.270204  49.234240
  11229.599  11229.580  0.500  0.915526  74.833322  123.208964  49.321287
  11231.791  11231.780  0.500  0.914012  74.788748  123.139536  49.368184
  11234.022  11234.000  0.500  0.912735  74.729089  123.062477  49.400349
  11236.271  11236.250  0.500  0.911737  74.662926  122.955477  49.406662
  11238.509  11238.510  0.500  0.910739  74.538934  122.770315  49.381531
  11240.787  11240.790  0.500  0.909616  72.693615  119.746330  48.219302
  11243.098  11243.090  0.500  0.909440  74.486510  122.706493  49.419987
  11245.422  11245.410  0.500  0.909268  74.652385  122.994332  49.544442
  11247.763  11247.750  0.500  0.909416  74.571863  122.892748  49.496201
  11250.105  11250.100  0.500  0.909652  74.521886  122.814796  49.453142
  11252.503  11252.480  0.500  0.910039  74.470238  122.729392  49.399636
  11254.891  11254.870  0.500  0.910520  74.421713  122.672115  49.352819
  11257.297  11257.290  0.500  0.911027  74.371137  122.601025  49.299240
  11259.731  11259.720  0.500  0.911412  74.327165  122.529985  49.251717
  11262.194  11262.170  0.500  0.911354  74.277545  122.461113  49.226861
  11264.647  11264.650  0.500  0.911757  74.225869  122.390713  49.178748
  11267.145  11267.140  0.500  0.912494  74.176714  122.327854  49.117260
  11269.672  11269.650  0.500  0.913733  74.127347  122.260285  49.029338
  11272.189  11272.170  0.500  0.915141  74.081207  122.188053  48.931441
  11274.723  11274.720  0.500  0.916630  74.034051  122.123661  48.832911
  11277.303  11277.290  0.500  0.917902  73.984718  122.056654  48.744046
  11279.873  11279.870  0.500  0.918790  73.935389  122.001011  48.678572
  11282.494  11282.480  0.500  0.919227  73.887543  121.931837  48.629715
  11285.100  11285.100  0.500  0.918981  73.828793  121.849935  48.609007
  11287.785  11287.750  0.500  0.918441  73.777743  121.787272  48.610270
  11290.410  11290.410  0.500  0.917569  73.714285  121.704306  48.619537
  11293.108  11293.090  0.500  0.916164  73.654038  121.604371  48.647906
  11295.813  11295.790  0.500  0.914806  73.552487  121.460734  48.656477
  11298.519  11298.510  0.500  0.913318  72.807958  120.248617  48.242657
  11301.249  11301.250  0.500  0.911913  73.394576  121.234933  48.706731
  11304.035  11304.000  0.500  0.910287  73.521476  121.460730  48.876852
  11306.779  11306.780  0.500  0.908859  73.451876  121.350024  48.902104
  11309.591  11309.570  0.500  0.907955  73.379259  121.251164  48.906446
  11312.404  11312.390  0.500  0.907537  73.309747  121.151419  48.886618
  11315.241  11315.220  0.500  0.907110  73.229551  121.021272  48.854961
  11318.085  11318.070  0.500  0.906715  73.052577  120.756719  48.767445
  11320.974  11320.950  0.500  0.906189  72.553248  119.939511  48.462885
  11323.849  11323.840  0.500  0.905902  72.836633  120.428454  48.674448
  11326.764  11326.750  0.500  0.905279  73.092601  120.857182  48.878144
  11329.686  11329.670  0.500  0.904445  72.766580  120.341045  48.710018
  11332.632  11332.620  0.500  0.903329  72.932141  120.632001  48.882292
  11335.580  11335.590  0.500  0.902409  72.818419  120.458402  48.856910
  11338.579  11338.570  0.500  0.901690  72.463632  119.888884  48.660890
  11341.580  11341.580  0.500  0.901067  72.390873  119.782142  48.647867
  11344.605  11344.600  0.500  0.900313  72.621111  120.180679  48.846535
  11347.666  11347.650  0.500  0.899672  72.421246  119.861055  48.747879
  11350.717  11350.710  0.500  0.899033  72.263915  119.620216  48.680993
  11353.803  11353.790  0.500  0.898190  71.813263  118.892794  48.425761
  11356.918  11356.890  0.500  0.896279  67.174213  111.226613  45.389929
  11360.019  11360.010  0.500  0.896148  70.780503  117.206882  47.836655
  11363.166  11363.150  0.500  0.894385  72.875581  120.694367  49.346995
  11366.315  11366.300  0.500  0.893097  72.491169  120.072474  49.155995
  11369.494  11369.480  0.500  0.891993  72.415355  119.962822  49.165352
  11372.681  11372.670  0.500  0.890732  72.424102  120.001589  49.243298
  11375.919  11375.890  0.500  0.889651  70.745488  117.221936  48.154679
  11379.138  11379.120  0.500  0.888952  72.382031  119.957399  49.312838
  11382.380  11382.370  0.500  0.888176  72.283905  119.805976  49.288843
  11385.670  11385.650  0.500  0.887544  72.167446  119.638633  49.251107
  11388.967  11388.940  0.500  0.887214  71.851980  119.127024  49.056668
  11392.277  11392.250  0.500  0.887247  71.775812  119.024652  49.012927
  11395.589  11395.570  0.500  0.887783  71.350522  118.325766  48.698994
  11398.937  11398.920  0.500  0.888053  71.877641  119.237847  49.061134
  11402.315  11402.290  0.500  0.888320  71.939275  119.342540  49.091112
  11405.679  11405.670  0.500  0.888464  71.851010  119.218725  49.033133
  11409.101  11409.080  0.500  0.888540  71.764889  119.097943  48.979706
  11412.519  11412.500  0.500  0.888401  71.673831  118.966175  48.932347
  11415.957  11415.950  0.500  0.888214  71.451661  118.607335  48.793845
  11419.442  11419.410  0.500  0.887844  71.337480  118.438776  48.742553
  11422.889  11422.890  0.500  0.887257  71.577087  118.848640  48.939936
  11426.429  11426.390  0.500  0.886611  71.485852  118.727415  48.921590
  11429.915  11429.910  0.500  0.885664  71.411309  118.614137  48.921260
  11433.477  11433.450  0.500  0.884647  71.344349  118.521447  48.932752
  11437.001  11437.000  0.500  0.883427  71.270520  118.418154  48.949806
  11440.596  11440.580  0.500  0.882098  71.195255  118.316566  48.972835
  11444.204  11444.180  0.500  0.880852  71.127035  118.217062  48.992663
  11447.804  11447.790  0.500  0.879754  71.053699  118.117812  49.005316
  11451.457  11451.420  0.500  0.878589  70.986583  118.011642  49.018332
  11455.106  11455.080  0.500  0.877568  70.908765  117.907184  49.024950
  11458.787  11458.750  0.500  0.876637  70.840906  117.808786  49.029678
  11462.458  11462.440  0.500  0.875884  70.767722  117.703512  49.022755
  11466.183  11466.150  0.500  0.875298  70.694274  117.601960  49.009166
  11469.900  11469.880  0.500  0.874655  70.609918  117.476031  48.988202
  11473.636  11473.620  0.500  0.874080  70.483384  117.283907  48.936209
  11477.414  11477.390  0.500  0.873199  68.834548  114.562663  47.842898
  11481.201  11481.180  0.500  0.872887  70.562929  117.451192  49.064498
  11485.019  11484.980  0.500  0.872533  70.437743  117.269472  49.005915
  11488.839  11488.810  0.500  0.872040  70.348879  117.134125  48.973516
  11492.685  11492.650  0.500  0.871416  70.263248  117.012072  48.953001
  11496.523  11496.510  0.500  0.870581  70.188952  116.903657  48.948511
  11500.426  11500.390  0.500  0.869599  70.114644  116.803628  48.954668
  11504.303  11504.290  0.500  0.868473  70.038892  116.698110  48.965586
  11508.234  11508.210  0.500  0.867329  69.965151  116.588958  48.975762
  11512.157  11512.150  0.500  0.866242  69.885063  116.484159  48.984956
  11516.151  11516.110  0.500  0.865082  69.807230  116.370338  48.993904
  11520.103  11520.080  0.500  0.863996  69.731333  116.256190  48.999001
  11524.120  11524.080  0.500  0.862707  69.647688  116.131505  49.009578
  11528.112  11528.090  0.500  0.861759  69.570284  116.032389  49.014209
  11532.158  11532.130  0.500  0.860721  69.485830  115.903321  49.010536
  11536.219  11536.180  0.500  0.859771  69.401301  115.786940  49.007888
  11540.282  11540.250  0.500  0.858999  69.516477  115.995894  49.134218
  11544.372  11544.340  0.500  0.858226  69.436684  115.884690  49.125078
  11548.465  11548.450  0.500  0.857585  69.333370  115.731557  49.091628
  11552.601  11552.580  0.500  0.857009  69.211115  115.532960  49.035599
  11556.729  11556.730  0.500  0.856457  69.024944  115.251178  48.943035
  11560.906  11560.890  0.500  0.856003  68.616730  114.598798  48.688062
  11565.086  11565.080  0.500  0.855755  67.458857  112.680226  47.884837
  11569.299  11569.280  0.500  0.855410  67.530648  112.809566  47.956336
  11573.508  11573.510  0.500  0.855162  67.705434  113.123127  48.101571
  11577.762  11577.750  0.500  0.854715  67.647882  113.039175  48.087367
  11582.019  11582.010  0.500  0.854251  67.553355  112.915870  48.057199
  11586.314  11586.290  0.500  0.853740  67.548452  112.929813  48.087692
  11590.600  11590.590  0.500  0.852991  67.457000  112.784303  48.061716
  11594.937  11594.910  0.500  0.852275  67.312696  112.570780  48.005100
  11599.253  11599.250  0.500  0.851276  67.318062  112.592346  48.062292
  11603.625  11603.610  0.500  0.850171  67.283399  112.551682  48.098037
  11608.001  11607.990  0.500  0.849036  67.228890  112.485182  48.124201
  11612.380  11612.380  0.500  0.847827  67.130577  112.339967  48.120218
  11616.815  11616.800  0.500  0.846722  67.011973  112.165396  48.098577
  11621.237  11621.230  0.500  0.845629  66.927915  112.043739  48.098964
  11625.720  11625.680  0.500  0.844655  66.879522  111.973252  48.115524
  11630.165  11630.150  0.500  0.843666  66.831610  111.917450  48.139126
  11634.662  11634.640  0.500  0.842809  66.771687  111.840322  48.147201
  11639.167  11639.150  0.500  0.841912  66.720638  111.768572  48.159496
  11643.706  11643.680  0.500  0.841164  66.671524  111.700780  48.166305
  11648.260  11648.230  0.500  0.840416  66.606876  111.619589  48.167333
  11652.841  11652.800  0.500  0.839676  66.444324  111.373562  48.096734
  11657.414  11657.380  0.500  0.838968  66.411199  111.339939  48.116234
  11662.003  11661.990  0.500  0.838290  66.242794  111.077587  48.035430
  11666.648  11666.610  0.500  0.837535  66.231199  111.074660  48.070434
  11671.279  11671.260  0.500  0.836833  66.145002  110.947292  48.049044
  11675.968  11675.920  0.500  0.835958  66.088243  110.878247  48.061180
  11680.619  11680.600  0.500  0.835158  66.007436  110.755568  48.046428
  11685.345  11685.300  0.500  0.834181  65.934693  110.658958  48.051433
  11690.051  11690.020  0.500  0.833191  65.852315  110.538554  48.046689
  11694.784  11694.760  0.500  0.832177  65.769758  110.420375  48.044012
  11699.534  11699.510  0.500  0.831202  65.706000  110.335914  48.054098
  11704.317  11704.290  0.500  0.830146  65.446368  109.920338  47.923667
  11709.098  11709.090  0.500  0.829103  65.565024  110.140477  48.069797
  11713.919  11713.900  0.500  0.828009  65.488706  110.025923  48.072360
  11718.756  11718.730  0.500  0.826967  65.392819  109.890545  48.063270
  11723.597  11723.590  0.500  0.825961  65.306567  109.755283  48.052403
  11728.508  11728.460  0.500  0.824988  65.214467  109.623271  48.041322
  11733.357  11733.350  0.500  0.824139  65.091967  109.439155  48.001374
  11738.306  11738.260  0.500  0.823409  65.038200  109.368644  48.005476
  11743.212  11743.190  0.500  0.822643  64.971365  109.275403  48.001293
  11748.169  11748.130  0.500  0.821939  64.772883  108.966756  47.899451
  11753.131  11753.100  0.500  0.821295  64.787918  109.024227  47.955564
  11758.109  11758.090  0.500  0.820537  64.482898  108.523607  47.771554
  11763.103  11763.090  0.500  0.819812  64.638457  108.799741  47.927866
  11768.156  11768.120  0.500  0.819196  64.544097  108.664697  47.897889
  11773.184  11773.160  0.500  0.818470  64.478269  108.572874  47.892172
  11778.251  11778.220  0.500  0.817746  64.184149  108.102351  47.719145
  11783.342  11783.300  0.500  0.816941  64.329675  108.364589  47.873435
  11788.424  11788.400  0.500  0.816147  64.237680  108.238538  47.855710
  11793.548  11793.520  0.500  0.815347  64.173093  108.150062  47.854864
  11798.682  11798.660  0.500  0.814449  64.090364  108.016237  47.838574
  11803.845  11803.820  0.500  0.813402  63.911227  107.738471  47.765560
  11809.036  11809.000  0.500  0.812493  63.897168  107.734513  47.807251
  11814.233  11814.190  0.500  0.811448  63.819643  107.627271  47.809604
  11819.422  11819.410  0.500  0.810346  63.734586  107.505824  47.808266
  11824.676  11824.640  0.500  0.809358  63.663698  107.416766  47.815918
  11829.917  11829.890  0.500  0.808200  63.328016  106.854691  47.620822
  11835.192  11835.160  0.500  0.807245  63.511177  107.190008  47.815902
  11840.461  11840.450  0.500  0.806345  63.451726  107.114085  47.825036
  11845.795  11845.760  0.500  0.805273  63.370816  106.988765  47.820327
  11851.141  11851.090  0.500  0.804474  63.293779  106.895572  47.816858
  11856.466  11856.440  0.500  0.803437  63.072905  106.516196  47.696619
  11861.834  11861.810  0.500  0.802630  62.988951  106.407313  47.686303
  11867.218  11867.190  0.500  0.801827  63.028130  106.504738  47.768291
  11872.632  11872.600  0.500  0.800957  62.950740  106.375545  47.751905
  11878.057  11878.020  0.500  0.800127  62.844455  106.222497  47.722778
  11883.518  11883.470  0.500  0.799247  62.633472  105.888032  47.614400
  11888.966  11888.930  0.500  0.798324  62.674346  105.985873  47.702385
  11894.449  11894.410  0.500  0.797534  62.599376  105.877421  47.691252
  11899.944  11899.910  0.500  0.796541  62.465541  105.672251  47.646139
  11905.475  11905.430  0.500  0.795529  62.412817  105.609256  47.665931
  11910.998  11910.970  0.500  0.794600  62.337093  105.502480  47.662010
  11916.558  11916.520  0.500  0.793590  61.767763  104.559081  47.283543
  11922.148  11922.100  0.500  0.792615  62.172347  105.259857  47.646890
  11927.749  11927.700  0.500  0.791662  62.090500  105.147078  47.641226
  11933.362  11933.310  0.500  0.790635  61.819600  104.706637  47.490374
  11938.992  11938.950  0.500  0.789727  61.928264  104.919706  47.630257
  11944.647  11944.600  0.500  0.788608  61.834827  104.769136  47.615176
  11950.307  11950.270  0.500  0.787661  61.747291  104.649467  47.605846
  11955.997  11955.960  0.500  0.786840  61.657089  104.515352  47.583884
