# XDI/1.0 BlueSky/1.10.0 BMM/2023-1.0-py310-tiled
# Beamline.name: BMM (06BM) -- Beamline for Materials Measurement (NIST)
# Beamline.xray_source: NSLS-II three-pole wiggler
# Beamline.collimation: paraboloid mirror, 5 nm Rh on 30 nm Pt
# Beamline.focusing: not in use
# Beamline.harmonic_rejection: flat mirror, Pt stripe, pitch = 7.0 mrad relative to beam
# Beamline.software: Bluesky 1.10.0, Ophyd 1.7.0, DataBroker 2.0.0b13, Python 3.10.8, 2023-1.0-py310-tiled
# Detector.I0: 10 cm N2
# Detector.I1: 25 cm N2
# Detector.I2: 25 cm N2
# Element.symbol: Sr
# Element.edge: K
# Element.reference: Sr
# Element.reference_material: SrTiO3
# Facility.name: NSLS-II
# Facility.energy: 3.0
# Facility.current: 399.8
# Facility.mode: top-off
# Facility.GUP: 301027
# Facility.SAF: 310583
# Facility.cycle: 2023-2
# Mono.name: Si(111)
# Mono.d_spacing: 3.1351860
# Mono.encoder_resolution: 0.0000050 deg/ct
# Mono.angle_offset: 16.0754326 deg
# Mono.scan_mode: pseudo channel cut
# Mono.scan_type: step
# Mono.direction: forward in energy
# Sample.name: SrSO4
# Sample.prep: Powder in PEG pellet
# Sample.x: 142.033 mm
# Sample.y: 113.475 mm
# Sample.SDD_position: 205.000 mm
# Scan.experimenters: Bruce Ravel
# Scan.edge_energy: 16104.6
# Scan.start_time: 2023-06-01T11:01:10
# Scan.end_time: 2023-06-01T11:07:51
# Scan.transient_id: 79103
# Scan.uid: 07367629-2d85-462d-846b-04482b5a18b1
# Scan.plot_hint: ln(I0/It)  --  ln($5/$6)
# Column.1: energy eV
# Column.2: requested_energy eV
# Column.3: measurement_time seconds
# Column.4: xmu 
# Column.5: I0 nA
# Column.6: It nA
# Column.7: Ir nA
# ///////////
# Celestine; Yate; UK
# -----------
# energy  requested_energy  measurement_time  xmu  I0  It  Ir
  15904.537  15904.600  0.500  -0.214504  22.311414  27.649356  22.579681
  15914.558  15914.600  0.500  -0.215130  22.190604  27.516866  22.482055
  15924.557  15924.600  0.500  -0.215975  22.231954  27.591452  22.547112
  15934.692  15934.600  0.500  -0.216729  22.160075  27.522986  22.497204
  15944.617  15944.600  0.500  -0.217308  22.115440  27.483441  22.472955
  15954.610  15954.600  0.500  -0.218118  22.084146  27.466788  22.467044
  15964.605  15964.600  0.500  -0.218716  22.021453  27.405209  22.422018
  15974.579  15974.600  0.500  -0.219217  21.969405  27.354131  22.387544
  15984.610  15984.600  0.500  -0.219802  21.838656  27.207242  22.271728
  15994.586  15994.600  0.500  -0.220298  21.872373  27.262769  22.327383
  16004.598  16004.600  0.500  -0.220703  21.825319  27.215145  22.292981
  16014.622  16014.600  0.500  -0.221244  21.765055  27.154682  22.248148
  16024.569  16024.600  0.500  -0.221569  21.568520  26.918230  22.058015
  16034.618  16034.600  0.500  -0.221547  21.667407  27.041058  22.167491
  16044.624  16044.600  0.500  -0.221561  21.620882  26.983376  22.121835
  16054.608  16054.600  0.500  -0.221199  21.571783  26.912358  22.063717
  16064.639  16064.600  0.500  -0.220001  21.524492  26.821206  21.994348
  16074.626  16074.600  0.500  -0.217980  21.467835  26.696575  21.883165
  16076.562  16076.600  0.500  -0.217430  21.416138  26.617655  21.819970
  16078.566  16078.600  0.500  -0.216559  21.409862  26.586687  21.792685
  16080.559  16080.600  0.500  -0.215758  21.440650  26.603608  21.800583
  16082.552  16082.600  0.500  -0.214730  21.435147  26.569459  21.770833
  16084.547  16084.600  0.500  -0.213438  21.422577  26.519583  21.727258
  16086.530  16086.600  0.500  -0.212111  21.414747  26.474723  21.686602
  16088.525  16088.600  0.500  -0.210570  21.402483  26.418829  21.631434
  16090.543  16090.600  0.500  -0.208491  21.395336  26.355160  21.575451
  16092.528  16092.600  0.500  -0.206030  21.381379  26.273238  21.499259
  16094.558  16094.600  0.500  -0.202772  21.366675  26.169759  21.404419
  16095.035  16095.100  0.500  -0.201915  21.365470  26.145853  21.383579
  16095.534  16095.600  0.500  -0.200885  21.366407  26.120084  21.356645
  16096.045  16096.100  0.500  -0.199957  21.359328  26.087215  21.324252
  16096.556  16096.600  0.500  -0.198731  21.358776  26.054591  21.296288
  16097.021  16097.100  0.500  -0.197644  21.358416  26.025845  21.266537
  16097.543  16097.600  0.500  -0.196462  21.355666  25.991734  21.230453
  16098.065  16098.100  0.500  -0.195169  21.348682  25.949674  21.190458
  16098.564  16098.600  0.500  -0.193599  21.347151  25.907103  21.151826
  16099.064  16099.100  0.500  -0.192243  21.339421  25.862638  21.111143
  16099.575  16099.600  0.500  -0.190683  21.329487  25.810305  21.059556
  16100.086  16100.100  0.500  -0.188916  21.323712  25.757758  21.010614
  16100.563  16100.600  0.500  -0.187066  21.318201  25.703498  20.961275
  16101.062  16101.100  0.500  -0.185021  21.312901  25.644621  20.901285
  16101.562  16101.600  0.500  -0.182676  21.317002  25.589483  20.846851
  16102.084  16102.100  0.500  -0.180274  21.312811  25.523065  20.782341
  16102.573  16102.600  0.500  -0.177612  21.314894  25.457698  20.719565
  16103.072  16103.100  0.500  -0.174512  21.313424  25.377143  20.642175
  16103.583  16103.600  0.500  -0.171185  21.314085  25.293635  20.557989
  16104.072  16104.100  0.500  -0.167453  21.314604  25.200031  20.464429
  16104.560  16104.600  0.500  -0.163339  21.312474  25.094075  20.362019
  16105.060  16105.100  0.500  -0.158519  21.315562  24.977034  20.244894
  16105.583  16105.600  0.500  -0.153065  21.310301  24.835052  20.103818
  16106.071  16106.100  0.500  -0.146993  21.303641  24.676978  19.946174
  16106.571  16106.600  0.500  -0.139945  21.304005  24.504089  19.765967
  16107.071  16107.100  0.500  -0.131169  21.298868  24.284138  19.545801
  16107.560  16107.600  0.500  -0.121386  21.297506  24.046172  19.300815
  16108.049  16108.100  0.500  -0.109691  21.296007  23.764920  19.018374
  16108.560  16108.600  0.500  -0.095854  21.295559  23.437848  18.687549
  16109.083  16109.100  0.500  -0.077716  21.288909  23.009382  18.264404
  16109.583  16109.600  0.500  -0.058383  21.286272  22.566013  17.830020
  16110.060  16110.100  0.500  -0.034948  21.286944  22.044036  17.322117
  16110.572  16110.600  0.500  -0.006403  21.284353  21.421064  16.727994
  16111.083  16111.100  0.500  0.027555  21.278965  20.700621  16.047038
  16111.561  16111.600  0.500  0.064899  21.277772  19.940731  15.337819
  16112.061  16112.100  0.500  0.111764  21.273428  19.023869  14.490851
  16112.584  16112.600  0.500  0.168095  21.275673  17.983763  13.544072
  16113.073  16113.100  0.500  0.230175  21.273539  16.899586  12.573632
  16113.574  16113.600  0.500  0.299094  21.272882  15.773628  11.580919
  16114.086  16114.100  0.500  0.378635  21.267056  14.563578  10.534297
  16114.575  16114.600  0.500  0.461383  21.265611  13.406082  9.555561
  16115.086  16115.100  0.500  0.545158  21.264687  12.328200  8.662434
  16115.598  16115.600  0.500  0.629195  21.266635  11.335552  7.850132
  16116.110  16116.100  0.500  0.714512  21.261969  10.406266  7.098535
  16116.599  16116.600  0.500  0.790875  21.260791  9.640663  6.474157
  16117.100  16117.100  0.500  0.860929  21.254014  8.985544  5.934113
  16117.601  16117.600  0.500  0.920197  21.252425  8.467824  5.494252
  16118.090  16118.100  0.500  0.962629  21.251355  8.115630  5.177365
  16118.591  16118.600  0.500  0.986461  21.246076  7.922536  4.984968
  16119.114  16119.100  0.500  0.991129  21.245830  7.885549  4.909807
  16119.615  16119.600  0.500  0.978311  21.242754  7.986122  4.956668
  16120.104  16120.100  0.500  0.952017  21.236244  8.196381  5.098802
  16120.605  16120.600  0.500  0.915955  21.234738  8.496751  5.322325
  16121.106  16121.100  0.500  0.873314  21.224112  8.862459  5.611251
  16121.607  16121.600  0.500  0.829401  21.215781  9.256668  5.931933
  16122.096  16122.100  0.500  0.784981  21.203931  9.671710  6.281965
  16122.609  16122.600  0.500  0.741965  21.186849  10.088698  6.644171
  16123.110  16123.100  0.500  0.704146  21.174171  10.471278  6.987470
  16123.599  16123.600  0.500  0.670182  21.165273  10.828484  7.313753
  16124.112  16124.100  0.500  0.639255  21.155709  11.163558  7.629090
  16124.601  16124.600  0.500  0.614841  21.154070  11.438576  7.895118
  16125.080  16125.100  0.500  0.595564  21.160606  11.664815  8.117221
  16125.592  16125.600  0.500  0.580539  21.174231  11.849032  8.302721
  16126.093  16126.100  0.500  0.569039  21.184643  11.991972  8.449916
  16126.572  16126.600  0.500  0.561352  21.189116  12.087063  8.550965
  16127.085  16127.100  0.500  0.555865  21.192568  12.155542  8.629275
  16127.586  16127.600  0.500  0.552054  21.191854  12.201550  8.677179
  16128.076  16128.100  0.500  0.549417  21.191095  12.233328  8.707940
  16128.577  16128.600  0.500  0.547259  21.192110  12.260346  8.727947
  16129.101  16129.100  0.500  0.544974  21.189474  12.286861  8.738221
  16129.568  16129.600  0.500  0.542595  21.182934  12.312322  8.743225
  16130.583  16130.590  0.500  0.536520  21.174900  12.382654  8.753950
  16131.563  16131.590  0.500  0.529914  21.165504  12.459195  8.773371
  16132.612  16132.610  0.500  0.524988  21.161396  12.518282  8.792604
  16133.683  16133.660  0.500  0.523280  21.156075  12.536528  8.806006
  16134.732  16134.720  0.500  0.524785  21.155674  12.517438  8.806691
  16135.804  16135.800  0.500  0.528196  21.150640  12.471855  8.790921
  16136.899  16136.900  0.500  0.533177  21.243007  12.464076  8.799104
  16138.062  16138.020  0.500  0.539569  21.231589  12.378010  8.743201
  16139.180  16139.160  0.500  0.548596  21.229706  12.265678  8.662564
  16140.321  16140.310  0.500  0.560966  21.218452  12.108473  8.538815
  16141.497  16141.490  0.500  0.574681  21.210638  11.939133  8.393227
  16142.684  16142.680  0.500  0.584282  21.201661  11.820050  8.275454
  16143.905  16143.900  0.500  0.585784  21.185172  11.793135  8.214750
  16145.104  16145.130  0.500  0.581924  21.168249  11.829282  8.201907
  16146.371  16146.380  0.500  0.577794  21.154069  11.870288  8.193198
  16147.639  16147.650  0.500  0.576837  21.162043  11.886124  8.158821
  16148.941  16148.940  0.500  0.580312  21.173435  11.851270  8.090721
  16150.266  16150.250  0.500  0.587095  21.168296  11.768303  8.000841
  16151.592  16151.580  0.500  0.596447  21.163740  11.656253  7.913808
  16152.963  16152.930  0.500  0.607842  21.152192  11.517888  7.845699
  16154.312  16154.300  0.500  0.619430  21.141689  11.379542  7.800758
  16155.707  16155.680  0.500  0.630109  21.137546  11.256451  7.774299
  16157.101  16157.090  0.500  0.636959  21.133083  11.177254  7.764481
  16158.519  16158.510  0.500  0.637411  21.127129  11.169050  7.778461
  16159.949  16159.950  0.500  0.630917  21.116350  11.236087  7.822046
  16161.413  16161.410  0.500  0.618706  21.114393  11.373074  7.889913
  16162.867  16162.890  0.500  0.604694  21.106424  11.529201  7.956963
  16164.389  16164.390  0.500  0.591570  21.098402  11.677067  8.017921
  16165.911  16165.910  0.500  0.583465  21.090056  11.767439  8.064875
  16167.479  16167.450  0.500  0.579613  21.079547  11.806972  8.108705
  16169.025  16169.010  0.500  0.578341  21.071555  11.817521  8.158057
  16170.606  16170.580  0.500  0.576694  21.062336  11.831813  8.221934
  16172.198  16172.180  0.500  0.573141  21.051246  11.867677  8.298089
  16173.813  16173.790  0.500  0.568165  21.000221  11.897968  8.355137
  16175.441  16175.430  0.500  0.563680  20.992232  11.946908  8.414047
  16177.080  16177.080  0.500  0.560807  21.028031  12.001715  8.462582
  16178.754  16178.750  0.500  0.559778  21.025092  12.012390  8.481143
  16180.462  16180.440  0.500  0.558811  21.018384  12.020178  8.495465
  16182.160  16182.150  0.500  0.557101  21.004025  12.032525  8.511910
  16183.903  16183.880  0.500  0.554205  20.996722  12.063223  8.528939
  16185.647  16185.630  0.500  0.551232  20.990581  12.095603  8.534217
  16187.415  16187.390  0.500  0.548544  20.981749  12.123056  8.517278
  16189.194  16189.180  0.500  0.547486  20.973346  12.131022  8.485351
  16190.985  16190.980  0.500  0.547908  20.961265  12.118927  8.441997
  16192.823  16192.810  0.500  0.549717  20.955060  12.093434  8.400486
  16194.638  16194.650  0.500  0.552325  20.948816  12.058344  8.361674
  16196.511  16196.510  0.500  0.555748  20.933037  12.008088  8.319110
  16198.418  16198.390  0.500  0.560480  20.921942  11.945070  8.273528
  16200.303  16200.290  0.500  0.566742  20.906093  11.861508  8.210307
  16202.224  16202.210  0.500  0.573512  20.907719  11.782390  8.148724
  16204.167  16204.150  0.500  0.579509  20.901804  11.708632  8.090072
  16206.100  16206.110  0.500  0.583799  20.885033  11.649155  8.057295
  16208.056  16208.080  0.500  0.585525  20.875798  11.623922  8.061459
  16210.093  16210.080  0.500  0.584021  20.867320  11.636697  8.097405
  16212.096  16212.090  0.500  0.580475  20.857739  11.672673  8.149718
  16214.157  16214.120  0.500  0.575039  20.846919  11.730202  8.210052
  16216.207  16216.180  0.500  0.568656  20.835671  11.798947  8.271069
  16218.281  16218.250  0.500  0.561439  20.828035  11.880054  8.340532
  16220.367  16220.340  0.500  0.554310  20.815103  11.957626  8.405634
  16222.430  16222.450  0.500  0.548672  20.805077  12.019441  8.459261
  16224.586  16224.580  0.500  0.544400  20.793351  12.064094  8.500138
  16226.708  16226.720  0.500  0.542247  20.787139  12.086477  8.525073
  16228.911  16228.890  0.500  0.541289  20.772061  12.089294  8.532938
  16231.092  16231.080  0.500  0.541471  20.758992  12.079489  8.527985
  16233.320  16233.280  0.500  0.541296  20.749136  12.075860  8.517284
  16235.502  16235.500  0.500  0.540477  20.697322  12.055571  8.495875
  16237.765  16237.750  0.500  0.539690  20.681966  12.056113  8.488516
  16240.006  16240.010  0.500  0.539323  20.712213  12.078184  8.493775
  16242.294  16242.290  0.500  0.539379  20.704599  12.073069  8.479388
  16244.617  16244.590  0.500  0.539744  20.692007  12.061315  8.455837
  16246.930  16246.910  0.500  0.540298  20.685224  12.050686  8.433054
  16249.266  16249.250  0.500  0.540656  20.670769  12.037959  8.414213
  16251.626  16251.600  0.500  0.540899  20.653764  12.025129  8.399472
  16253.975  16253.980  0.500  0.541095  20.626250  12.006759  8.383198
  16256.348  16256.370  0.500  0.541739  20.605526  11.986966  8.372836
  16258.825  16258.790  0.500  0.542609  20.623841  11.987193  8.384829
  16261.234  16261.220  0.500  0.543691  20.613241  11.968073  8.389220
  16263.679  16263.670  0.500  0.544101  20.604961  11.958368  8.399672
  16266.171  16266.150  0.500  0.544473  20.590122  11.945305  8.404155
  16268.651  16268.640  0.500  0.544281  20.576567  11.939733  8.414397
  16271.156  16271.150  0.500  0.543715  20.566520  11.940663  8.420722
  16273.673  16273.670  0.500  0.543130  20.549774  11.937926  8.419926
  16276.261  16276.220  0.500  0.542671  20.540632  11.938083  8.417698
  16278.826  16278.790  0.500  0.543003  20.524398  11.924696  8.408582
  16281.392  16281.370  0.500  0.543394  20.517237  11.915868  8.396913
  16283.970  16283.980  0.500  0.542132  20.502296  11.922230  8.393462
  16286.596  16286.600  0.500  0.539339  20.494389  11.950966  8.410688
  16289.246  16289.250  0.500  0.536704  20.475521  11.971465  8.422744
  16291.943  16291.910  0.500  0.534738  20.457294  11.984343  8.432900
  16294.618  16294.590  0.500  0.533689  20.453845  11.994908  8.449322
  16297.305  16297.290  0.500  0.532582  20.437993  11.998878  8.460304
  16300.017  16300.010  0.500  0.532401  20.424253  11.992993  8.458044
  16302.764  16302.750  0.500  0.532770  20.408363  11.979229  8.443940
  16305.547  16305.500  0.500  0.533750  20.354943  11.936179  8.405389
  16308.308  16308.280  0.500  0.534265  20.367965  11.937658  8.405311
  16311.117  16311.070  0.500  0.533955  20.374794  11.945363  8.410458
  16313.903  16313.890  0.500  0.533261  20.364763  11.947778  8.415683
  16316.702  16316.720  0.500  0.532018  20.350603  11.954314  8.418159
  16319.583  16319.570  0.500  0.531217  20.339270  11.957240  8.420189
  16322.454  16322.450  0.500  0.530110  20.325529  11.962392  8.420018
  16325.372  16325.340  0.500  0.529525  20.308205  11.959194  8.421593
  16328.280  16328.250  0.500  0.528532  20.294915  11.963240  8.432623
  16331.177  16331.170  0.500  0.528043  20.286843  11.964330  8.443305
  16334.122  16334.120  0.500  0.527653  20.273964  11.961399  8.452370
  16337.138  16337.090  0.500  0.527321  20.257519  11.955665  8.457945
  16340.109  16340.070  0.500  0.526920  20.241412  11.950948  8.459459
  16343.104  16343.080  0.500  0.526474  20.221196  11.944333  8.454827
  16346.088  16346.100  0.500  0.526243  20.219407  11.946036  8.453663
  16349.156  16349.150  0.500  0.525990  20.200310  11.937780  8.444016
  16352.248  16352.210  0.500  0.525298  20.191384  11.940764  8.439569
  16355.330  16355.290  0.500  0.524255  20.172426  11.942003  8.439183
  16358.401  16358.390  0.500  0.523814  20.163109  11.941747  8.442134
  16361.496  16361.510  0.500  0.523136  20.146205  11.939833  8.438634
  16364.663  16364.650  0.500  0.522471  20.131600  11.939111  8.433658
  16367.832  16367.800  0.500  0.521725  20.116216  11.938890  8.431049
  16371.013  16370.980  0.500  0.521367  20.069017  11.915142  8.418425
  16374.184  16374.170  0.500  0.520675  20.003659  11.884556  8.400835
  16377.403  16377.390  0.500  0.519699  20.064055  11.932088  8.440667
  16380.635  16380.620  0.500  0.518689  20.058199  11.940650  8.453651
  16383.904  16383.870  0.500  0.517478  20.042323  11.945660  8.461493
  16387.198  16387.150  0.500  0.516744  20.029087  11.946535  8.465409
  16390.457  16390.440  0.500  0.516020  20.014360  11.946400  8.464894
  16393.754  16393.750  0.500  0.515417  19.992605  11.940609  8.462296
  16397.110  16397.070  0.500  0.515197  19.978815  11.935005  8.458608
  16400.456  16400.420  0.500  0.514948  19.958411  11.925786  8.456860
  16403.827  16403.790  0.500  0.514009  19.919033  11.913432  8.450160
  16407.176  16407.170  0.500  0.513229  19.933698  11.931507  8.471140
  16410.609  16410.580  0.500  0.512202  19.915738  11.933004  8.477169
  16414.008  16414.000  0.500  0.511130  19.899142  11.935848  8.480189
  16417.467  16417.450  0.500  0.510283  19.882308  11.935865  8.480174
  16420.963  16420.910  0.500  0.509632  19.855995  11.927823  8.472198
  16424.414  16424.390  0.500  0.509194  19.853018  11.931258  8.471277
  16427.901  16427.890  0.500  0.508958  19.838510  11.925355  8.464527
  16431.461  16431.410  0.500  0.508658  19.821737  11.918854  8.455804
  16435.022  16434.950  0.500  0.508226  19.800776  11.911388  8.446775
  16438.550  16438.500  0.500  0.507829  19.773570  11.899747  8.438650
  16442.114  16442.080  0.500  0.507374  19.744882  11.887892  8.433232
  16445.692  16445.680  0.500  0.506863  19.724411  11.881630  8.437648
  16449.331  16449.290  0.500  0.506138  19.733572  11.895772  8.453206
  16452.959  16452.920  0.500  0.505559  19.718841  11.893778  8.457881
  16456.637  16456.580  0.500  0.505047  19.699707  11.888318  8.457617
  16460.257  16460.250  0.500  0.504671  19.661939  11.869996  8.448113
  16463.973  16463.940  0.500  0.504231  19.666914  11.878221  8.456474
  16467.680  16467.650  0.500  0.503670  19.652358  11.876091  8.457076
  16471.435  16471.380  0.500  0.502949  19.634287  11.873732  8.456691
  16475.145  16475.120  0.500  0.501946  19.614965  11.873945  8.457173
  16478.916  16478.890  0.500  0.501132  19.595972  11.872116  8.456708
  16482.688  16482.680  0.500  0.500010  19.575589  11.873076  8.456841
  16486.522  16486.480  0.500  0.499187  19.560502  11.873692  8.458619
  16490.334  16490.310  0.500  0.498225  19.542879  11.874414  8.462479
  16494.160  16494.150  0.500  0.497475  19.524554  11.872180  8.464893
  16498.023  16498.010  0.500  0.496565  19.504919  11.871036  8.463939
  16501.923  16501.890  0.500  0.495862  19.485617  11.867628  8.462609
  16505.850  16505.790  0.500  0.495182  19.460241  11.860242  8.457348
  16509.731  16509.710  0.500  0.494990  19.449271  11.855826  8.455835
  16513.649  16513.650  0.500  0.494391  19.430060  11.851215  8.449501
  16517.653  16517.610  0.500  0.493719  19.414108  11.849441  8.451683
  16521.623  16521.580  0.500  0.493170  19.392231  11.842592  8.450049
  16525.606  16525.580  0.500  0.492634  19.371431  11.836230  8.448447
  16529.580  16529.590  0.500  0.491868  19.354156  11.834737  8.448847
  16533.664  16533.630  0.500  0.491366  19.328535  11.825006  8.444297
  16537.713  16537.680  0.500  0.490693  19.314870  11.824605  8.446185
  16541.801  16541.750  0.500  0.489988  19.297084  11.822045  8.447668
  16545.830  16545.840  0.500  0.489199  19.262245  11.810015  8.443370
  16549.994  16549.950  0.500  0.488402  19.244514  11.808551  8.446347
  16554.123  16554.080  0.500  0.487473  19.235132  11.813765  8.451384
  16558.267  16558.230  0.500  0.486666  19.217381  11.812397  8.455267
  16562.425  16562.390  0.500  0.485764  19.189969  11.806191  8.450935
  16566.633  16566.580  0.500  0.485023  19.179508  11.808492  8.453430
  16570.843  16570.780  0.500  0.484174  19.159051  11.805922  8.452424
  16575.056  16575.010  0.500  0.483400  19.139805  11.803199  8.450342
  16579.282  16579.250  0.500  0.482740  19.184159  11.838357  8.477503
  16583.499  16583.510  0.500  0.482031  19.158799  11.831091  8.475093
  16587.814  16587.790  0.500  0.481217  19.140732  11.829556  8.475133
  16592.132  16592.090  0.500  0.480532  19.113617  11.820894  8.471054
  16596.428  16596.410  0.500  0.479810  19.100817  11.821516  8.472650
  16600.774  16600.750  0.500  0.478985  19.079863  11.818298  8.471923
  16605.123  16605.110  0.500  0.478404  19.057138  11.811075  8.468739
  16609.534  16609.490  0.500  0.477536  19.040821  11.811209  8.473371
  16613.923  16613.880  0.500  0.476577  19.017459  11.808034  8.473869
  16618.327  16618.300  0.500  0.475894  18.985540  11.796278  8.466037
  16622.746  16622.730  0.500  0.474967  18.976950  11.801877  8.474306
  16627.239  16627.180  0.500  0.474095  18.949531  11.795103  8.469747
  16631.686  16631.650  0.500  0.473428  18.933855  11.793210  8.470436
  16636.148  16636.140  0.500  0.472485  18.911750  11.790549  8.470267
  16640.685  16640.650  0.500  0.471655  18.888837  11.786044  8.467654
  16645.249  16645.180  0.500  0.470655  18.865274  11.783121  8.468925
  16649.767  16649.730  0.500  0.470221  18.845647  11.775967  8.467749
  16654.312  16654.300  0.500  0.469471  18.821644  11.769800  8.468583
  16658.895  16658.880  0.500  0.468390  18.800646  11.769380  8.465792
  16663.542  16663.490  0.500  0.467716  18.776425  11.762144  8.464588
  16668.143  16668.110  0.500  0.466687  18.751152  11.758408  8.461906
  16672.795  16672.760  0.500  0.466090  18.731723  11.753241  8.460511
  16677.450  16677.420  0.500  0.465306  18.705748  11.746144  8.457062
  16682.144  16682.100  0.500  0.464441  18.678279  11.739046  8.455574
  16686.841  16686.800  0.500  0.463721  18.650834  11.730235  8.452085
  16691.565  16691.520  0.500  0.462810  18.621079  11.722193  8.447024
  16696.303  16696.260  0.500  0.461866  18.588114  11.712499  8.442527
  16701.069  16701.010  0.500  0.461066  18.545669  11.695109  8.433572
  16705.862  16705.790  0.500  0.460149  18.485896  11.668101  8.414685
  16710.621  16710.590  0.500  0.459362  18.347147  11.589644  8.361706
  16715.457  16715.400  0.500  0.458157  17.041358  10.777773  7.777994
  16720.319  16720.230  0.500  0.457998  17.842426  11.286209  8.144151
  16725.160  16725.090  0.500  0.457017  18.595475  11.774086  8.499794
  16730.016  16729.960  0.500  0.456129  18.553333  11.757848  8.491301
  16734.924  16734.850  0.500  0.455286  18.519117  11.746062  8.485268
  16739.823  16739.760  0.500  0.454751  18.488392  11.732847  8.478866
  16744.773  16744.690  0.500  0.453668  18.457247  11.725774  8.475339
  16749.776  16749.630  0.500  0.452704  18.428547  11.718833  8.471903
  16754.646  16754.600  0.500  0.451786  18.397249  11.709675  8.467550
  16759.618  16759.590  0.500  0.451027  18.371705  11.702295  8.463813
  16764.605  16764.590  0.500  0.450268  18.344144  11.693608  8.463116
  16769.682  16769.620  0.500  0.449060  18.316121  11.689863  8.459509
  16774.699  16774.660  0.500  0.448416  18.289031  11.680085  8.458748
  16779.745  16779.720  0.500  0.447253  18.260244  11.675271  8.453700
  16784.830  16784.800  0.500  0.446592  18.234867  11.666756  8.451899
  16789.919  16789.900  0.500  0.445771  18.209134  11.659859  8.448326
  16795.060  16795.020  0.500  0.444819  18.176265  11.649900  8.442506
  16800.205  16800.160  0.500  0.443947  18.138639  11.635929  8.435840
  16805.389  16805.320  0.500  0.443181  17.867345  11.470674  8.317427
  16810.528  16810.500  0.500  0.442259  18.097232  11.628980  8.433456
  16815.706  16815.690  0.500  0.441378  18.059309  11.614834  8.426746
  16820.938  16820.910  0.500  0.440556  18.011097  11.593354  8.412654
  16826.160  16826.140  0.500  0.439721  17.934019  11.553387  8.386067
  16831.423  16831.390  0.500  0.438834  17.699279  11.412281  8.287697
  16836.714  16836.660  0.500  0.438118  15.163018  9.783931  7.106951
  16841.959  16841.950  0.500  0.436939  18.025519  11.644685  8.460511
  16847.307  16847.260  0.500  0.436074  18.025834  11.654967  8.472209
  16852.620  16852.590  0.500  0.435227  17.983682  11.637557  8.458444
  16857.975  16857.940  0.500  0.434193  17.942965  11.623221  8.453196
  16863.332  16863.310  0.500  0.433128  17.824423  11.558742  8.406095
  16868.718  16868.690  0.500  0.432669  17.869662  11.593390  8.435570
  16874.108  16874.100  0.500  0.431340  17.832926  11.584943  8.428442
  16879.526  16879.520  0.500  0.430622  17.834374  11.594212  8.441476
  16885.023  16884.970  0.500  0.429996  17.798413  11.578079  8.431523
  16890.448  16890.430  0.500  0.428938  17.774444  11.574727  8.428805
  16895.914  16895.910  0.500  0.428042  17.739192  11.562123  8.423916
  16901.434  16901.410  0.500  0.427225  17.711504  11.553512  8.420221
  16906.982  16906.930  0.500  0.426040  17.682479  11.548255  8.416539
  16912.484  16912.470  0.500  0.425348  17.626316  11.519539  8.399278
  16918.028  16918.020  0.500  0.424435  17.611688  11.520499  8.402249
  16923.625  16923.600  0.500  0.423443  17.393711  11.389199  8.308596
  16929.226  16929.200  0.500  0.422825  17.564209  11.507951  8.399296
  16934.843  16934.810  0.500  0.421532  17.507545  11.485668  8.383775
  16940.464  16940.450  0.500  0.420829  17.444366  11.452267  8.363062
  16946.151  16946.100  0.500  0.419895  17.220482  11.315853  8.265116
  16951.805  16951.770  0.500  0.419093  14.875474  9.782749  7.146589
  16957.475  16957.460  0.500  0.418048  17.517685  11.532433  8.429539
