# XDI/1.0 BlueSky/1.5.0
# Beamline.name: 6BM
# Beamline.xray_source: NSLS-II three-pole wiggler
# Beamline.collimation: paraboloid mirror, 5 nm Rh on 30 nm Pt
# Beamline.focusing: not in use
# Beamline.harmonic_rejection: flat mirror, Si stripe, pitch = 7.0 mrad relative to beam
# Detector.i0: 10 cm N2
# Detector.i1: 25 cm N2
# Detector.i2: 25 cm N2
# Element.symbol: Ti
# Element.edge: K
# Facility.name: NSLS-II
# Facility.energy: 3.0
# Facility.current: 219.4
# Facility.mode: top-off
# Facility.gup: 301027
# Facility.saf: 304156
# Mono.name: Si(111)
# Mono.d_spacing: 3.1353241
# Mono.encoder_resolution: 0.0000050 deg/ct
# Mono.angle_offset: 16.0576931 deg
# Mono.scan_mode: pseudo channel cut
# Mono.scan_type: step
# Mono.direction: forward in energy
# Sample.name: Eu2Ti2O7 pyrochlore
# Sample.prep: powder on tape
# Sample.x_position: -97.500 mm
# Sample.y_position: 115.250 mm
# Sample.wheel_position: 0.000 mm
# Scan.experimenters: Bruce Ravel
# Scan.edge_energy: 4966.0
# Scan.start_time: 2019-06-16T20:39:25
# Scan.end_time: 2019-06-16T23:06:51
# Scan.transient_id: 10639
# Scan.uid: 13bb7c02-38da-4619-ae76-ad642b5872ee
# Scan.plot_hint: ln(I0/It)  --  ln($5/$6)
# Scan.sequence: merge of 9 scans
# Column.1: energy eV
# Column.2: requested_energy eV
# Column.3: measurement_time seconds
# Column.4: mutrans
# Column.5: i0
# Column.6: itrans
# Column.7: irefer
# /////
#  from Fatih Dogan, 1993
# -----
# energy   requested_energy   measurement_time   mutrans   i0   itrans   irefer
4765.994000 4766.000000 0.500000 3.298278 8.529566 0.315141 0.020981
4776.007000 4776.000000 0.500000 3.273615 8.731844 0.330668 0.022493
4786.008000 4786.000000 0.500000 3.249044 8.952498 0.347457 0.024071
4796.008000 4796.000000 0.500000 3.225389 9.168524 0.364360 0.025641
4806.008000 4806.000000 0.500000 3.201300 9.388443 0.382197 0.027255
4816.007000 4816.000000 0.500000 3.177510 9.602639 0.400328 0.029228
4826.006000 4826.000000 0.500000 3.153849 9.820939 0.419231 0.031060
4836.004000 4836.000000 0.500000 3.130648 10.034690 0.438408 0.032980
4846.067000 4846.000000 0.500000 3.107444 10.267140 0.459158 0.035250
4855.996000 4856.000000 0.500000 3.084695 10.491782 0.479926 0.037489
4866.003000 4866.000000 0.500000 3.061854 10.718668 0.501634 0.039803
4876.008000 4876.000000 0.500000 3.039474 10.942237 0.523700 0.042264
4886.002000 4886.000000 0.500000 3.016901 11.169063 0.546751 0.044792
4896.005000 4896.000000 0.500000 2.994806 11.394608 0.570255 0.047377
4906.003000 4906.000000 0.500000 2.972941 11.626316 0.594716 0.050279
4916.002000 4916.000000 0.500000 2.951204 11.859415 0.619970 0.053339
4926.001000 4926.000000 0.500000 2.929426 12.101191 0.646538 0.056423
4935.998000 4936.000000 0.500000 2.908285 12.328861 0.672773 0.059631
4937.999000 4938.000000 0.500000 2.903761 12.370698 0.678121 0.060182
4940.000000 4940.000000 0.500000 2.899466 12.428384 0.684211 0.060890
4942.007000 4942.000000 0.500000 2.895372 12.474465 0.689571 0.061585
4944.004000 4944.000000 0.500000 2.891020 12.517081 0.694940 0.062266
4946.002000 4946.000000 0.500000 2.886900 12.555641 0.699960 0.062896
4947.998000 4948.000000 0.500000 2.882466 12.586688 0.704807 0.063575
4949.996000 4950.000000 0.500000 2.878371 12.631791 0.710235 0.064090
4951.997000 4952.000000 0.500000 2.874375 12.672642 0.715386 0.064643
4953.995000 4954.000000 0.500000 2.870079 12.713021 0.720753 0.065327
4955.998000 4956.000000 0.500000 2.865879 12.752368 0.726029 0.065930
4956.248000 4956.250000 0.500000 2.865340 12.755543 0.726606 0.065998
4956.496000 4956.500000 0.500000 2.864812 12.766043 0.727586 0.066123
4956.746000 4956.750000 0.500000 2.864401 12.776311 0.728471 0.066236
4956.994000 4957.000000 0.500000 2.864057 12.780822 0.728977 0.066274
4957.245000 4957.250000 0.500000 2.863602 12.784390 0.729513 0.066225
4957.493000 4957.500000 0.500000 2.862789 12.797572 0.730858 0.066411
4957.744000 4957.750000 0.500000 2.862340 12.804522 0.731584 0.066411
4957.995000 4958.000000 0.500000 2.861835 12.808581 0.732188 0.066677
4958.244000 4958.250000 0.500000 2.861228 12.814736 0.732983 0.066610
4958.495000 4958.500000 0.500000 2.860724 12.820139 0.733660 0.066722
4958.745000 4958.750000 0.500000 2.860226 12.836667 0.734972 0.066824
4958.998000 4959.000000 0.500000 2.859774 12.841996 0.735614 0.066792
4959.246000 4959.250000 0.500000 2.859406 12.847969 0.736226 0.066835
4959.495000 4959.500000 0.500000 2.858794 12.852029 0.736908 0.066972
4959.745000 4959.750000 0.500000 2.858315 12.856482 0.737517 0.066943
4959.995000 4960.000000 0.500000 2.858044 12.861760 0.738019 0.066867
4960.245000 4960.250000 0.500000 2.857516 12.867136 0.738716 0.067131
4960.494000 4960.500000 0.500000 2.857041 12.871538 0.739319 0.067080
4960.747000 4960.750000 0.500000 2.856553 12.874575 0.739858 0.067088
4960.997000 4961.000000 0.500000 2.855978 12.880764 0.740639 0.067014
4961.246000 4961.250000 0.500000 2.855479 12.885834 0.741301 0.067026
4961.498000 4961.500000 0.500000 2.854902 12.892634 0.742124 0.067046
4961.746000 4961.750000 0.500000 2.854488 12.896001 0.742622 0.067072
4961.996000 4962.000000 0.500000 2.854173 12.902491 0.743230 0.067026
4962.246000 4962.250000 0.500000 2.853446 12.906378 0.743993 0.066931
4962.494000 4962.500000 0.500000 2.853164 12.912144 0.744534 0.066873
4962.746000 4962.750000 0.500000 2.852593 12.916122 0.745188 0.066625
4962.998000 4963.000000 0.500000 2.852116 12.921341 0.745846 0.066448
4963.247000 4963.250000 0.500000 2.851825 12.924675 0.746257 0.066124
4963.498000 4963.500000 0.500000 2.851298 12.930900 0.747010 0.065608
4963.745000 4963.750000 0.500000 2.850812 12.935043 0.747610 0.064750
4963.997000 4964.000000 0.500000 2.850388 12.938156 0.748108 0.063443
4964.244000 4964.250000 0.500000 2.849996 12.943068 0.748683 0.061213
4964.496000 4964.500000 0.500000 2.849621 12.948402 0.749272 0.058154
4964.748000 4964.750000 0.500000 2.849336 12.963778 0.750376 0.053758
4964.999000 4965.000000 0.500000 2.848796 12.969514 0.751115 0.049407
4965.250000 4965.250000 0.500000 2.848700 12.971764 0.751320 0.046568
4965.499000 4965.500000 0.500000 2.848262 12.976011 0.751893 0.045434
4965.746000 4965.750000 0.500000 2.848031 12.982480 0.752442 0.046112
4965.998000 4966.000000 0.500000 2.848002 12.986836 0.752716 0.047654
4966.247000 4966.250000 0.500000 2.848385 12.992240 0.752743 0.049503
4966.500000 4966.500000 0.500000 2.848912 13.009377 0.753332 0.050953
4966.749000 4966.750000 0.500000 2.850324 13.013479 0.752512 0.052106
4967.001000 4967.000000 0.500000 2.852022 13.014804 0.751307 0.052701
4967.249000 4967.250000 0.500000 2.853798 13.017716 0.750147 0.052522
4967.498000 4967.500000 0.500000 2.854459 13.021198 0.749852 0.052105
4967.748000 4967.750000 0.500000 2.854127 13.027620 0.750469 0.051517
4967.998000 4968.000000 0.500000 2.853918 13.034334 0.751011 0.050938
4968.248000 4968.250000 0.500000 2.855053 13.038987 0.750436 0.050080
4968.498000 4968.500000 0.500000 2.856965 13.042723 0.749225 0.049065
4968.748000 4968.750000 0.500000 2.859870 13.045367 0.747206 0.047975
4969.002000 4969.000000 0.500000 2.863106 13.047026 0.744868 0.047163
4969.248000 4969.250000 0.500000 2.865182 13.046880 0.743327 0.046610
4969.499000 4969.500000 0.500000 2.865506 13.050466 0.743283 0.046041
4969.747000 4969.750000 0.500000 2.864293 13.051710 0.744247 0.045865
4969.998000 4970.000000 0.500000 2.863208 13.056763 0.745347 0.045466
4970.249000 4970.250000 0.500000 2.862337 13.064848 0.746458 0.045615
4970.498000 4970.500000 0.500000 2.860972 13.074846 0.748047 0.045395
4970.752000 4970.750000 0.500000 2.858333 13.083881 0.750552 0.045339
4971.003000 4971.000000 0.500000 2.855612 13.092548 0.753105 0.045198
4971.251000 4971.250000 0.500000 2.853686 13.101245 0.755050 0.044802
4971.501000 4971.500000 0.500000 2.852188 13.108377 0.756591 0.044254
4971.747000 4971.750000 0.500000 2.851911 13.123134 0.757648 0.043591
4972.000000 4972.000000 0.500000 2.852862 13.128408 0.757234 0.042772
4972.247000 4972.250000 0.500000 2.854863 13.131554 0.755927 0.041835
4972.501000 4972.500000 0.500000 2.856784 13.137725 0.754803 0.040723
4972.750000 4972.750000 0.500000 2.858641 13.141194 0.753616 0.039799
4973.002000 4973.000000 0.500000 2.859978 13.144285 0.752770 0.038967
4973.246000 4973.250000 0.500000 2.860974 13.148078 0.752251 0.038067
4973.500000 4973.500000 0.500000 2.862238 13.151202 0.751470 0.037292
4973.747000 4973.750000 0.500000 2.862903 13.152390 0.751041 0.036460
4974.002000 4974.000000 0.500000 2.863565 13.155453 0.750714 0.035809
4974.250000 4974.250000 0.500000 2.864141 13.171271 0.751186 0.035000
4974.501000 4974.500000 0.500000 2.864149 13.173032 0.751279 0.034348
4974.752000 4974.750000 0.500000 2.863657 13.175902 0.751814 0.033661
4975.000000 4975.000000 0.500000 2.863005 13.177625 0.752399 0.033210
4975.249000 4975.250000 0.500000 2.862076 13.179173 0.753187 0.032510
4975.501000 4975.500000 0.500000 2.861863 13.180318 0.753417 0.031974
4975.752000 4975.750000 0.500000 2.861453 13.181104 0.753769 0.031207
4976.003000 4976.000000 0.500000 2.861474 13.181093 0.753751 0.030554
4976.251000 4976.250000 0.500000 2.861745 13.180602 0.753520 0.030251
4976.501000 4976.500000 0.500000 2.862700 13.182131 0.752891 0.029629
4976.751000 4976.750000 0.500000 2.864281 13.184774 0.751843 0.028998
4976.999000 4977.000000 0.500000 2.866447 13.185878 0.750294 0.028537
4977.250000 4977.250000 0.500000 2.869460 13.188554 0.748174 0.028130
4977.501000 4977.500000 0.500000 2.873379 13.190275 0.745353 0.027753
4977.752000 4977.750000 0.500000 2.877327 13.193518 0.742585 0.027353
4978.003000 4978.000000 0.500000 2.881149 13.195657 0.739880 0.027005
4978.252000 4978.250000 0.500000 2.884234 13.197939 0.737726 0.026661
4978.499000 4978.500000 0.500000 2.886853 13.200361 0.735946 0.026346
4978.749000 4978.750000 0.500000 2.889668 13.203469 0.734047 0.026104
4978.999000 4979.000000 0.500000 2.892361 13.204463 0.732127 0.025875
4979.252000 4979.250000 0.500000 2.896106 13.205552 0.729433 0.025771
4979.501000 4979.500000 0.500000 2.899930 13.205547 0.726669 0.025507
4979.752000 4979.750000 0.500000 2.904465 13.213345 0.723805 0.025446
4980.002000 4980.000000 0.500000 2.909486 13.215831 0.720305 0.025023
4980.254000 4980.250000 0.500000 2.915288 13.213954 0.716000 0.024958
4980.499000 4980.500000 0.500000 2.922432 13.211983 0.710865 0.024580
4980.751000 4980.750000 0.500000 2.931177 13.213376 0.704718 0.024285
4981.000000 4981.000000 0.500000 2.940837 13.224350 0.698520 0.024005
4981.251000 4981.250000 0.500000 2.951591 13.223896 0.691053 0.023677
4981.502000 4981.500000 0.500000 2.963520 13.225782 0.682947 0.023303
4981.752000 4981.750000 0.500000 2.976836 13.229058 0.674056 0.022897
4982.002000 4982.000000 0.500000 2.991454 13.233010 0.664416 0.022489
4982.251000 4982.250000 0.500000 3.006431 13.235066 0.654708 0.022117
4982.500000 4982.500000 0.500000 3.022035 13.238284 0.644692 0.021737
4982.750000 4982.750000 0.500000 3.037058 13.241752 0.635309 0.021225
4983.002000 4983.000000 0.500000 3.050781 13.243735 0.626703 0.020921
4983.251000 4983.250000 0.500000 3.062208 13.249215 0.619919 0.020712
4983.503000 4983.500000 0.500000 3.073083 13.258790 0.613588 0.020289
4983.750000 4983.750000 0.500000 3.082797 13.259202 0.607725 0.020198
4984.004000 4984.000000 0.500000 3.091294 13.258509 0.602455 0.019987
4984.248000 4984.250000 0.500000 3.098522 13.257321 0.598151 0.019955
4984.500000 4984.500000 0.500000 3.103653 13.259163 0.595137 0.019910
4984.749000 4984.750000 0.500000 3.105987 13.261335 0.593855 0.020128
4985.002000 4985.000000 0.500000 3.106029 13.268287 0.594135 0.020033
4985.253000 4985.250000 0.500000 3.102480 13.277809 0.596670 0.020295
4985.503000 4985.500000 0.500000 3.097167 13.280816 0.600008 0.020587
4985.749000 4985.750000 0.500000 3.089978 13.282324 0.604354 0.020784
4986.001000 4986.000000 0.500000 3.082910 13.282518 0.608694 0.021104
4986.250000 4986.250000 0.500000 3.076001 13.285520 0.613020 0.021319
4986.501000 4986.500000 0.500000 3.069560 13.292708 0.617335 0.021718
4986.752000 4986.750000 0.500000 3.064105 13.291979 0.620683 0.021875
4987.001000 4987.000000 0.500000 3.059181 13.291847 0.623721 0.022156
4987.253000 4987.250000 0.500000 3.054859 13.290041 0.626352 0.022291
4987.502000 4987.500000 0.500000 3.051041 13.290552 0.628774 0.022342
4987.749000 4987.750000 0.500000 3.047522 13.292974 0.631092 0.022437
4988.001000 4988.000000 0.500000 3.044471 13.296335 0.633199 0.022521
4988.251000 4988.250000 0.500000 3.041751 13.300863 0.635136 0.022659
4988.502000 4988.500000 0.500000 3.039560 13.308944 0.636918 0.022657
4988.753000 4988.750000 0.500000 3.037612 13.318854 0.638633 0.022729
4989.001000 4989.000000 0.500000 3.036875 13.330721 0.639669 0.022868
4989.252000 4989.250000 0.500000 3.036676 13.340304 0.640256 0.022707
4989.500000 4989.500000 0.500000 3.037753 13.352353 0.640147 0.022759
4989.750000 4989.750000 0.500000 3.039151 13.364547 0.639829 0.022914
4990.000000 4990.000000 0.500000 3.042498 13.376530 0.638275 0.022741
4990.250000 4990.250000 0.500000 3.045820 13.387038 0.636652 0.022863
4990.504000 4990.500000 0.500000 3.049556 13.397791 0.634779 0.022751
4990.751000 4990.750000 0.500000 3.052907 13.409470 0.633224 0.022712
4991.001000 4991.000000 0.500000 3.056399 13.420712 0.631550 0.022494
4991.250000 4991.250000 0.500000 3.059010 13.429470 0.630314 0.022665
4991.501000 4991.500000 0.500000 3.061835 13.437249 0.628885 0.022643
4991.748000 4991.750000 0.500000 3.064270 13.447972 0.627866 0.022581
4992.001000 4992.000000 0.500000 3.066621 13.467716 0.627301 0.022588
4992.252000 4992.250000 0.500000 3.067874 13.474714 0.626840 0.022611
4992.503000 4992.500000 0.500000 3.068699 13.481964 0.626661 0.022586
4992.753000 4992.750000 0.500000 3.069013 13.488216 0.626756 0.022620
4993.000000 4993.000000 0.500000 3.068976 13.495291 0.627109 0.022701
4993.251000 4993.250000 0.500000 3.067866 13.500626 0.628053 0.022924
4993.502000 4993.500000 0.500000 3.066878 13.505220 0.628894 0.022800
4993.750000 4993.750000 0.500000 3.065793 13.508050 0.629701 0.022643
4994.004000 4994.000000 0.500000 3.064387 13.512623 0.630808 0.022727
4994.251000 4994.250000 0.500000 3.063179 13.516829 0.631758 0.022799
4994.505000 4994.500000 0.500000 3.062658 13.531506 0.632780 0.022599
4994.751000 4994.750000 0.500000 3.061832 13.537555 0.633580 0.022718
4995.000000 4995.000000 0.500000 3.061528 13.542783 0.634019 0.022685
4995.250000 4995.250000 0.500000 3.061328 13.547333 0.634360 0.022516
4995.501000 4995.500000 0.500000 3.061229 13.549325 0.634517 0.022403
4995.749000 4995.750000 0.500000 3.060792 13.552559 0.634943 0.022257
4996.002000 4996.000000 0.700000 3.060561 18.937102 0.887417 0.030990
4997.089000 4997.080000 0.710000 3.057695 19.260239 0.905150 0.030843
4998.194000 4998.180000 0.730000 3.050410 19.808045 0.937731 0.031047
4999.291000 4999.290000 0.740000 3.039611 20.093921 0.961538 0.031322
5000.434000 5000.430000 0.750000 3.029944 20.423109 0.986796 0.032243
5001.587000 5001.580000 0.760000 3.026448 20.742108 1.005731 0.032917
5002.765000 5002.760000 0.780000 3.028717 21.340808 1.032416 0.034006
5003.954000 5003.950000 0.790000 3.032169 21.668348 1.044657 0.034549
5005.166000 5005.160000 0.800000 3.028573 22.002882 1.064601 0.035742
5006.392000 5006.390000 0.810000 3.014810 22.341159 1.095918 0.037616
5007.645000 5007.640000 0.830000 2.998652 22.951601 1.144212 0.040372
5008.916000 5008.910000 0.840000 2.983784 23.284883 1.178232 0.042962
5010.205000 5010.200000 0.850000 2.966752 23.616677 1.215556 0.045113
5011.513000 5011.510000 0.860000 2.952244 23.949085 1.250658 0.046859
5012.834000 5012.830000 0.880000 2.942922 24.576710 1.295467 0.049017
5014.186000 5014.180000 0.890000 2.937685 24.906054 1.319724 0.050485
5015.544000 5015.540000 0.900000 2.935211 25.235573 1.340497 0.051743
5016.933000 5016.930000 0.910000 2.935047 25.571329 1.358556 0.052872
5018.335000 5018.330000 0.930000 2.934182 26.189430 1.392598 0.054790
5019.757000 5019.750000 0.940000 2.930127 26.533616 1.416636 0.056353
5021.193000 5021.190000 0.950000 2.923385 26.877423 1.444690 0.057964
5022.652000 5022.650000 0.960000 2.916598 27.220290 1.473076 0.059387
5024.135000 5024.130000 0.980000 2.911799 27.855262 1.514700 0.061054
5025.634000 5025.630000 0.990000 2.909454 28.198472 1.536962 0.061700
5027.144000 5027.140000 1.000000 2.908689 28.547298 1.557170 0.062425
5028.684000 5028.680000 1.010000 2.908965 28.897697 1.575851 0.062615
5030.244000 5030.240000 1.030000 2.908503 29.534034 1.611295 0.063398
5031.815000 5031.810000 1.040000 2.906951 29.884314 1.632938 0.062996
5033.405000 5033.400000 1.050000 2.904044 30.237105 1.657021 0.062653
5035.016000 5035.010000 1.060000 2.900706 30.594628 1.682222 0.062014
5036.656000 5036.650000 1.080000 2.898061 31.246353 1.722611 0.062770
5038.305000 5038.300000 1.090000 2.896941 31.611862 1.744713 0.062769
5039.973000 5039.970000 1.100000 2.896304 32.004504 1.767509 0.063593
5041.648000 5041.650000 1.110000 2.895289 32.388094 1.790508 0.064700
5043.366000 5043.360000 1.130000 2.893960 33.060532 1.830122 0.067051
5045.087000 5045.090000 1.140000 2.893007 33.430404 1.852357 0.068762
5046.834000 5046.830000 1.150000 2.892619 33.806168 1.873902 0.071128
5048.600000 5048.600000 1.160000 2.892571 34.184498 1.894975 0.073620
5050.379000 5050.380000 1.180000 2.891190 34.858661 1.935027 0.076998
5052.177000 5052.180000 1.190000 2.887814 35.251250 1.963437 0.080176
5053.993000 5054.000000 1.200000 2.883238 35.690581 1.997005 0.083017
5055.834000 5055.840000 1.210000 2.879129 36.086135 2.027446 0.085414
5057.691000 5057.700000 1.230000 2.876275 36.782483 2.072471 0.087649
5059.574000 5059.580000 1.240000 2.874195 37.186508 2.099608 0.089062
5061.472000 5061.480000 1.250000 2.871885 37.588027 2.127176 0.090556
5063.392000 5063.400000 1.260000 2.868422 37.989741 2.157368 0.092610
5065.323000 5065.330000 1.280000 2.863988 38.711121 2.208096 0.095459
5067.284000 5067.290000 1.290000 2.858581 39.156234 2.245608 0.098141
5069.254000 5069.260000 1.300000 2.852740 39.575061 2.282924 0.100234
5071.250000 5071.260000 1.310000 2.846252 39.997088 2.322259 0.102566
5073.263000 5073.270000 1.330000 2.839688 40.726716 2.380214 0.105450
5075.295000 5075.300000 1.340000 2.833628 41.144416 2.419262 0.106755
5077.346000 5077.350000 1.350000 2.828459 41.569999 2.456949 0.107377
5079.412000 5079.420000 1.360000 2.823888 41.992527 2.493287 0.107628
5081.507000 5081.510000 1.380000 2.818569 42.725805 2.550366 0.108410
5083.604000 5083.610000 1.390000 2.812407 43.147614 2.591464 0.108163
5085.734000 5085.740000 1.400000 2.805712 43.597703 2.636078 0.108221
5087.889000 5087.890000 1.410000 2.799127 44.045561 2.680796 0.108538
5090.045000 5090.050000 1.430000 2.792535 44.788617 2.744010 0.110397
5092.224000 5092.230000 1.440000 2.786529 45.215888 2.786866 0.112630
5094.438000 5094.440000 1.450000 2.781320 45.650783 2.828368 0.116317
5096.655000 5096.660000 1.460000 2.777454 46.090213 2.866642 0.120962
5098.895000 5098.900000 1.480000 2.773703 46.844322 2.924487 0.127420
5101.161000 5101.160000 1.490000 2.769452 47.285774 2.964643 0.133314
5103.442000 5103.440000 1.500000 2.764668 47.736995 3.007303 0.138367
5105.739000 5105.740000 1.510000 2.759143 48.189511 3.052594 0.142492
5108.054000 5108.050000 1.530000 2.754217 48.989257 3.118616 0.146254
5110.394000 5110.390000 1.540000 2.749424 49.436495 3.162208 0.148807
5112.744000 5112.740000 1.550000 2.744991 49.891157 3.205466 0.151168
5115.123000 5115.120000 1.560000 2.740315 50.366223 3.251147 0.153856
5117.508000 5117.510000 1.580000 2.735972 51.159825 3.316714 0.157232
5119.920000 5119.920000 1.590000 2.732349 51.614020 3.358319 0.159905
5122.351000 5122.350000 1.600000 2.729353 52.064583 3.397804 0.162293
5124.802000 5124.800000 1.610000 2.726242 52.523436 3.438446 0.165195
5127.271000 5127.270000 1.630000 2.722474 53.318969 3.503699 0.169711
5129.762000 5129.760000 1.640000 2.717843 53.829932 3.553686 0.173228
5132.272000 5132.270000 1.650000 2.712929 54.294154 3.601992 0.175874
5134.790000 5134.790000 1.660000 2.708274 54.758707 3.649757 0.178300
5137.341000 5137.340000 1.680000 2.703856 55.554081 3.719179 0.181358
5139.903000 5139.900000 1.690000 2.699578 56.026408 3.766891 0.183207
5142.488000 5142.490000 1.700000 2.695006 56.499565 3.816069 0.184374
5145.088000 5145.090000 1.710000 2.689831 56.963574 3.867373 0.185829
5147.712000 5147.710000 1.730000 2.684333 57.758528 3.942997 0.188460
5150.350000 5150.350000 1.740000 2.678696 58.228943 3.997571 0.191597
5153.009000 5153.010000 1.750000 2.672880 58.713326 4.054322 0.195467
5155.691000 5155.690000 1.760000 2.666651 59.200293 4.113502 0.200913
5158.391000 5158.390000 1.780000 2.660388 59.997360 4.195095 0.207642
5161.113000 5161.110000 1.790000 2.654586 60.449479 4.251309 0.213335
5163.840000 5163.840000 1.800000 2.649084 60.907354 4.307104 0.218124
5166.601000 5166.600000 1.810000 2.644029 61.421991 4.365539 0.222933
5169.369000 5169.370000 1.830000 2.638975 62.213278 4.444170 0.229313
5172.171000 5172.170000 1.840000 2.633946 62.658484 4.498533 0.234955
5174.982000 5174.980000 1.850000 2.628706 63.100008 4.554048 0.240916
5177.810000 5177.810000 1.860000 2.623240 63.534483 4.610537 0.246517
5180.659000 5180.660000 1.880000 2.617297 64.393371 4.700690 0.253068
5183.530000 5183.530000 1.890000 2.611116 64.854314 4.763713 0.258029
5186.423000 5186.420000 1.900000 2.604991 65.301141 4.826039 0.262268
5189.319000 5189.320000 1.910000 2.599460 65.796497 4.889558 0.266907
5192.251000 5192.250000 1.930000 2.594057 66.575758 4.974313 0.272408
5195.202000 5195.200000 1.940000 2.588466 67.017583 5.035405 0.276042
5198.160000 5198.160000 1.950000 2.582402 67.468267 5.100073 0.280581
5201.140000 5201.140000 1.960000 2.576129 67.955054 5.169207 0.284863
5204.151000 5204.150000 1.980000 2.569943 68.763175 5.263132 0.290199
5207.170000 5207.170000 1.990000 2.564125 69.239617 5.330526 0.294061
5210.211000 5210.210000 2.000000 2.558402 69.717055 5.398090 0.298298
5213.268000 5213.270000 2.010000 2.552766 70.181880 5.464778 0.302313
5216.353000 5216.350000 2.030000 2.547116 70.990890 5.559145 0.309701
5219.450000 5219.450000 2.040000 2.541534 71.461764 5.627294 0.315419
5222.562000 5222.560000 2.050000 2.536298 71.947559 5.695331 0.321440
5225.700000 5225.700000 2.060000 2.531086 72.456715 5.765572 0.327275
5228.850000 5228.850000 2.080000 2.525998 73.285173 5.861229 0.334617
5232.031000 5232.030000 2.090000 2.520882 73.774811 5.930670 0.340571
5235.221000 5235.220000 2.100000 2.515366 74.273937 6.003822 0.347562
5238.432000 5238.430000 2.110000 2.509656 74.773144 6.078798 0.354665
5241.660000 5241.660000 2.130000 2.503666 75.608652 6.183615 0.364153
5244.920000 5244.920000 2.140000 2.498123 76.056117 6.254805 0.371556
5248.182000 5248.180000 2.150000 2.492500 76.122358 6.295559 0.376956
5251.471000 5251.470000 2.160000 2.486716 76.792947 6.387865 0.385705
5254.783000 5254.780000 2.180000 2.480671 77.980329 6.525958 0.397197
5258.109000 5258.110000 2.190000 2.474528 78.575496 6.616263 0.405506
5261.453000 5261.450000 2.200000 2.468386 79.072753 6.699176 0.413313
5264.820000 5264.820000 2.210000 2.462266 79.734919 6.796723 0.421189
5268.201000 5268.200000 2.230000 2.455906 80.671769 6.920456 0.430652
5271.598000 5271.600000 2.240000 2.449715 81.233993 7.011934 0.437683
5275.032000 5275.030000 2.250000 2.443733 81.879528 7.110104 0.445267
5278.470000 5278.470000 2.260000 2.437837 81.564604 7.124614 0.447485
5281.934000 5281.930000 2.280000 2.431909 83.220030 7.312473 0.460827
5285.403000 5285.400000 2.290000 2.426023 83.870080 7.413080 0.469050
5288.902000 5288.900000 2.300000 2.420183 84.426015 7.505940 0.477091
5292.421000 5292.420000 2.310000 2.414440 85.044722 7.604465 0.486220
5295.960000 5295.960000 2.330000 2.408468 86.021657 7.737902 0.497651
5299.511000 5299.510000 2.340000 2.402239 86.639004 7.842123 0.507916
5303.089000 5303.090000 2.350000 2.395950 87.177964 7.940669 0.517347
5306.680000 5306.680000 2.360000 2.389387 87.596979 8.031410 0.526250
5310.290000 5310.290000 2.380000 2.383095 88.472041 8.162822 0.537809
5313.921000 5313.920000 2.390000 2.376807 88.934648 8.257285 0.547154
5317.574000 5317.570000 2.400000 2.370560 89.477118 8.359728 0.557200
5321.242000 5321.240000 2.410000 2.364270 90.038759 8.465249 0.567973
5324.930000 5324.930000 2.430000 2.357806 91.037777 8.614707 0.581676
5328.644000 5328.640000 2.440000 2.351316 91.547772 8.719397 0.592654
5332.360000 5332.360000 2.450000 2.344813 92.012115 8.820755 0.603744
5336.111000 5336.110000 2.460000 2.338498 92.598117 8.933167 0.615699
5339.870000 5339.870000 2.480000 2.332124 93.614282 9.088912 0.631049
5343.659000 5343.660000 2.490000 2.325928 94.165509 9.199270 0.643193
5347.461000 5347.460000 2.500000 2.319769 94.784821 9.316997 0.655867
5351.282000 5351.280000 2.510000 2.313605 95.274771 9.423069 0.667537
5355.121000 5355.120000 2.530000 2.307309 96.012239 9.555980 0.680779
5358.983000 5358.980000 2.540000 2.301076 96.536811 9.668289 0.691809
5362.863000 5362.860000 2.550000 2.295384 97.906496 9.861428 0.709075
5366.760000 5366.760000 2.560000 2.289250 98.579085 9.990247 0.721093
5370.682000 5370.680000 2.580000 2.283029 99.629986 10.159774 0.736797
5374.610000 5374.610000 2.590000 2.276822 100.328125 10.294635 0.749665
5378.568000 5378.570000 2.600000 2.270441 101.134713 10.443805 0.765071
5382.542000 5382.540000 2.610000 2.264003 101.909540 10.591853 0.780057
5386.543000 5386.540000 2.630000 2.257457 103.057955 10.781555 0.798743
5390.552000 5390.550000 2.640000 2.250790 103.783311 10.930050 0.815263
5394.579000 5394.580000 2.650000 2.244103 104.596576 11.089603 0.831961
5398.630000 5398.630000 2.660000 2.237550 105.253660 11.232605 0.847882
5402.701000 5402.700000 2.680000 2.230857 106.585112 11.451104 0.869280
5406.789000 5406.790000 2.690000 2.224286 107.263318 11.599923 0.885927
5410.903000 5410.900000 2.700000 2.217741 108.055854 11.762411 0.904042
5415.021000 5415.020000 2.710000 2.211275 108.977002 11.939586 0.923381
5419.168000 5419.170000 2.730000 2.204823 109.794573 12.106980 0.941980
5423.331000 5423.330000 2.740000 2.198402 110.753662 12.291493 0.962593
5427.521000 5427.520000 2.750000 2.191906 111.530564 12.458346 0.981918
5431.721000 5431.720000 2.760000 2.185444 112.258313 12.620924 1.001163
5435.938000 5435.940000 2.780000 2.178951 113.416289 12.834162 1.024293
5440.182000 5440.180000 2.790000 2.172333 114.285399 13.018404 1.046030
5444.443000 5444.440000 2.800000 2.165867 115.030226 13.188254 1.065719
5448.720000 5448.720000 2.810000 2.159187 115.818577 13.367631 1.086488
5453.020000 5453.020000 2.830000 2.152529 116.892254 13.581716 1.109868
5457.341000 5457.340000 2.840000 2.145804 117.566559 13.752216 1.130229
5461.673000 5461.670000 2.850000 2.139053 118.198426 13.919803 1.150296
5466.027000 5466.030000 2.860000 2.132257 118.818651 14.088167 1.171165
5470.400000 5470.400000 2.880000 2.125424 119.890966 14.312864 1.196280
5474.801000 5474.800000 2.890000 2.118620 120.409722 14.472902 1.216543
5479.213000 5479.210000 2.900000 2.111751 120.883046 14.629992 1.236698
5483.642000 5483.640000 2.910000 2.104888 121.399644 14.793667 1.257825
5488.090000 5488.090000 2.930000 2.098144 122.238363 14.996672 1.282079
5492.562000 5492.560000 2.940000 2.091357 122.584275 15.141565 1.302607
5497.052000 5497.050000 2.950000 2.084519 122.942567 15.289989 1.322877
5501.560000 5501.560000 2.960000 2.077833 123.259477 15.432187 1.343259
5506.080000 5506.080000 2.980000 2.071295 123.918945 15.616566 1.367255
5510.630000 5510.630000 2.990000 2.064663 124.091971 15.742439 1.386196
5515.191000 5515.190000 3.000000 2.058053 124.288063 15.871890 1.406389
5519.780000 5519.780000 3.010000 2.051408 124.443124 15.997585 1.425834
5524.380000 5524.380000 3.030000 2.044868 124.913886 16.163480 1.449305
5528.998000 5529.000000 3.040000 2.038254 125.012381 16.283566 1.469057
5533.638000 5533.640000 3.050000 2.031628 125.167723 16.412189 1.489886
5538.302000 5538.300000 3.060000 2.024978 125.147378 16.519094 1.508594
5542.979000 5542.980000 3.080000 2.018447 125.647470 16.693677 1.533841
5547.681000 5547.680000 3.090000 2.011806 125.623233 16.801697 1.552773
5552.400000 5552.400000 3.100000 2.005260 125.726229 16.925893 1.573402
5557.129000 5557.130000 3.110000 1.998635 125.911177 17.063457 1.595575
5561.887000 5561.890000 3.130000 1.991954 126.412257 17.246190 1.622291
5566.659000 5566.660000 3.140000 1.985318 126.433153 17.363914 1.642473
5571.461000 5571.460000 3.150000 1.978586 126.482828 17.488068 1.664306
5576.274000 5576.270000 3.160000 1.972006 126.582897 17.617493 1.686632
5581.101000 5581.100000 3.180000 1.965334 127.055868 17.801633 1.714312
5585.951000 5585.950000 3.190000 1.958779 127.262042 17.947774 1.738570
5590.819000 5590.820000 3.200000 1.952199 127.462327 18.094681 1.762567
5595.710000 5595.710000 3.210000 1.945644 127.774423 18.258336 1.789020
5600.618000 5600.620000 3.230000 1.939052 128.396515 18.468525 1.820152
5605.540000 5605.540000 3.240000 1.932554 128.634645 18.623470 1.846445
5610.491000 5610.490000 3.250000 1.925959 129.095520 18.813863 1.876092
5615.451000 5615.450000 3.260000 1.919413 129.351750 18.975000 1.903804
5620.442000 5620.440000 3.280000 1.912808 130.165749 19.220945 1.939872
5625.443000 5625.440000 3.290000 1.906156 129.888362 19.307997 1.960209
5630.460000 5630.460000 3.300000 1.899695 130.374612 19.505840 1.992791
5635.501000 5635.500000 3.310000 1.893252 130.538585 19.656642 2.020603
5640.560000 5640.560000 3.330000 1.886534 131.454603 19.927990 2.061176
5645.639000 5645.640000 3.340000 1.879947 131.959317 20.136723 2.095247
5650.741000 5650.740000 3.350000 1.873117 132.527465 20.362036 2.131388
5655.857000 5655.860000 3.360000 1.866217 133.174392 20.603042 2.169920
5660.989000 5660.990000 3.380000 1.859185 134.323139 20.927493 2.216882
5666.149000 5666.150000 3.390000 1.852277 135.087744 21.192469 2.258505
5671.321000 5671.320000 3.400000 1.845441 135.765279 21.444930 2.298874
5676.520000 5676.520000 3.410000 1.838825 136.707544 21.737075 2.343822
5681.732000 5681.730000 3.430000 1.832174 138.094193 22.104104 2.397545
5686.962000 5686.960000 3.440000 1.825501 138.826119 22.370029 2.441091
5692.211000 5692.210000 3.450000 1.818805 139.546925 22.637222 2.484888
5697.483000 5697.480000 3.460000 1.812052 140.326994 22.918055 2.530933
5702.773000 5702.770000 3.480000 1.805374 141.434836 23.253730 2.583324
5708.082000 5708.080000 3.490000 1.798675 142.116803 23.522913 2.628764
5713.399000 5713.400000 3.500000 1.791828 143.116908 23.851091 2.681773
5718.751000 5718.750000 3.510000 1.785105 143.875463 24.139290 2.729714
5724.121000 5724.120000 3.530000 1.778325 144.974944 24.489238 2.786173
5729.501000 5729.500000 3.540000 1.771553 145.533594 24.750656 2.832273
5734.902000 5734.900000 3.550000 1.764768 146.178597 25.029629 2.881340
5740.322000 5740.320000 3.560000 1.757963 146.751168 25.299256 2.930166
5745.772000 5745.770000 3.580000 1.751157 147.982784 25.685803 2.992381
5751.232000 5751.230000 3.590000 1.744355 148.677415 25.982535 3.045362
5756.699000 5756.700000 3.600000 1.737564 149.295882 26.268279 3.097122
5762.205000 5762.200000 3.610000 1.730757 149.946756 26.563247 3.151183
5767.720000 5767.720000 3.630000 1.723947 151.010476 26.934335 3.214447
5773.260000 5773.260000 3.640000 1.717152 151.547964 27.214480 3.267480
5778.810000 5778.810000 3.650000 1.710369 152.055029 27.491383 3.320246
5784.389000 5784.390000 3.660000 1.703584 152.551000 27.768836 3.373794
5789.978000 5789.980000 3.680000 1.696836 153.608046 28.150492 3.440713
5795.588000 5795.590000 3.690000 1.690013 154.166971 28.446334 3.497414
5801.224000 5801.220000 3.700000 1.683254 154.677512 28.734293 3.554054
5806.869000 5806.870000 3.710000 1.676522 155.287856 29.042414 3.613685
5812.540000 5812.540000 3.730000 1.669766 156.192963 29.409706 3.680735
5818.230000 5818.230000 3.740000 1.662990 156.615283 29.689723 3.737942
