# XDI/1.0 BlueSky/1.5.3
# Beamline.name: 6BM
# Beamline.xray_source: NSLS-II three-pole wiggler
# Beamline.collimation: paraboloid mirror, 5 nm Rh on 30 nm Pt
# Beamline.focusing: not in use
# Beamline.harmonic_rejection: flat mirror, Pt stripe, pitch = 7.0 mrad relative to beam
# Detector.i0: 10 cm N2
# Detector.i1: 25 cm N2
# Detector.i2: 25 cm N2
# Element.symbol: Zr
# Element.edge: K
# Facility.name: NSLS-II
# Facility.energy: 3.0
# Facility.current: 399.4
# Facility.mode: top-off
# Facility.gup: 305832
# Facility.saf: 305669
# Facility.cycle: 2020-1
# Mono.name: Si(111)
# Mono.d_spacing: 3.1353241
# Mono.encoder_resolution: 0.0000050 deg/ct
# Mono.angle_offset: 16.0581090 deg
# Mono.scan_mode: fixed exit
# Mono.scan_type: step
# Mono.direction: forward in energy
# Sample.name: LiNaZrSi6O15
# Sample.prep: Powder in polyethylene glycol pellet
# Sample.x_position: -5.367 mm
# Sample.y_position: 103.555 mm
# Scan.experimenters: Neil Hyatt, Martin Stennett, Dan Austin, Seb Lawson
# Scan.edge_energy: 17997.6
# Scan.start_time: 2020-03-05T04:39:28
# Scan.end_time: 2020-03-05T05:13:32
# Scan.transient_id: 22982
# Scan.uid: 577fe5cb-54b9-419f-8fa3-2e345ccfc068
# Scan.plot_hint: ln(I0/It)  --  ln($5/$6)
# Scan.sequence: merge of 3 scans
# Column.1: energy eV
# Column.2: requested_energy eV
# Column.3: measurement_time seconds
# Column.4: mutrans
# Column.5: i0
# Column.6: itrans
# Column.7: irefer
# /////
# 
# -----
# energy   requested_energy   measurement_time   mutrans   i0   itrans   irefer
17797.598000 17797.600000 1.000000 -0.373762 8.888336 12.916488 10.126988
17807.594000 17807.600000 1.000000 -0.374159 8.864514 12.886978 10.109890
17817.684000 17817.600000 1.000000 -0.374750 8.835601 12.852549 10.081850
17827.744000 17827.600000 1.000000 -0.375097 8.811945 12.822615 10.063322
17837.717000 17837.600000 1.000000 -0.375460 8.786767 12.790558 10.040679
17847.744000 17847.600000 1.000000 -0.375948 8.758297 12.755315 10.014791
17857.726000 17857.600000 1.000000 -0.375983 8.735809 12.723028 9.991066
17867.691000 17867.600000 1.000000 -0.376588 8.708087 12.690346 9.967052
17877.710000 17877.600000 1.000000 -0.377007 8.683273 12.659483 9.944483
17887.712000 17887.600000 1.000000 -0.377294 8.613232 12.560980 9.864576
17897.711000 17897.600000 1.000000 -0.377569 8.631994 12.591795 9.890461
17907.693000 17907.600000 1.000000 -0.377725 8.606040 12.555878 9.859915
17917.728000 17917.600000 1.000000 -0.378033 8.579308 12.520704 9.830715
17927.733000 17927.600000 1.000000 -0.378173 8.555154 12.487234 9.796808
17937.749000 17937.600000 1.000000 -0.377908 8.544623 12.468560 9.773854
17947.649000 17947.600000 1.000000 -0.377969 8.514044 12.424715 9.722402
17957.687000 17957.600000 1.000000 -0.377246 8.495705 12.388943 9.673813
17967.694000 17967.600000 1.000000 -0.375959 8.449187 12.305318 9.564827
17969.521000 17969.600000 1.000000 -0.375608 8.428347 12.270635 9.528650
17971.533000 17971.600000 1.000000 -0.375299 8.449618 12.297800 9.535072
17973.531000 17973.600000 1.000000 -0.374919 8.468220 12.320152 9.536654
17975.515000 17975.600000 1.000000 -0.374533 8.466693 12.313192 9.510555
17977.528000 17977.600000 1.000000 -0.374024 8.460880 12.298485 9.477116
17979.570000 17979.600000 1.000000 -0.373055 8.458275 12.282690 9.434988
17981.556000 17981.600000 1.000000 -0.372434 8.450230 12.263371 9.383993
17983.584000 17983.600000 1.000000 -0.371291 8.450133 12.249119 9.330678
17985.557000 17985.600000 1.000000 -0.370370 8.448139 12.235221 9.262155
17987.572000 17987.600000 1.000000 -0.369035 8.450670 12.222445 9.167047
17987.785000 17987.850000 1.000000 -0.368861 8.448113 12.216701 9.150270
17988.012000 17988.100000 1.000000 -0.368520 8.448898 12.213936 9.135784
17988.267000 17988.350000 1.000000 -0.368286 8.448934 12.210979 9.120310
17988.537000 17988.600000 1.000000 -0.368103 8.453178 12.214661 9.107304
17988.750000 17988.850000 1.000000 -0.367886 8.452224 12.211155 9.090000
17989.020000 17989.100000 1.000000 -0.367509 8.453497 12.208282 9.071242
17989.289000 17989.350000 1.000000 -0.367473 8.450888 12.203749 9.048184
17989.545000 17989.600000 1.000000 -0.367283 8.451643 12.202874 9.027360
17989.786000 17989.850000 1.000000 -0.366833 8.451863 12.197962 9.004319
17990.056000 17990.100000 1.000000 -0.366540 8.452044 12.194431 8.979632
17990.283000 17990.350000 1.000000 -0.366366 8.461670 12.205813 8.966902
17990.525000 17990.600000 1.000000 -0.366009 8.464897 12.206813 8.941738
17990.780000 17990.850000 1.000000 -0.365802 8.464035 12.202391 8.910600
17991.078000 17991.100000 1.000000 -0.365375 8.463471 12.196205 8.872015
17991.334000 17991.350000 1.000000 -0.364976 8.464243 12.192524 8.838249
17991.575000 17991.600000 1.000000 -0.364629 8.460466 12.182834 8.794073
17991.831000 17991.850000 1.000000 -0.364374 8.460495 12.179890 8.754493
17992.072000 17992.100000 1.000000 -0.363979 8.459357 12.173505 8.710770
17992.314000 17992.350000 1.000000 -0.363748 8.458726 12.169722 8.664138
17992.569000 17992.600000 1.000000 -0.363297 8.458091 12.163268 8.608308
17992.825000 17992.850000 1.000000 -0.362894 8.459639 12.160602 8.551812
17993.081000 17993.100000 1.000000 -0.362305 8.459857 12.153921 8.485443
17993.336000 17993.350000 1.000000 -0.361960 8.457739 12.146643 8.417038
17993.564000 17993.600000 1.000000 -0.361555 8.456117 12.139678 8.342775
17993.805000 17993.850000 1.000000 -0.361040 8.455446 12.132551 8.264496
17994.047000 17994.100000 1.000000 -0.360613 8.453308 12.124170 8.173027
17994.316000 17994.350000 1.000000 -0.360008 8.454477 12.118429 8.069020
17994.586000 17994.600000 1.000000 -0.359517 8.452269 12.108923 7.953479
17994.856000 17994.850000 1.000000 -0.359081 8.454145 12.106212 7.833859
17995.098000 17995.100000 1.000000 -0.358317 8.451892 12.093707 7.698090
17995.339000 17995.350000 1.000000 -0.357662 8.450090 12.083125 7.568275
17995.595000 17995.600000 1.000000 -0.357139 8.449810 12.076305 7.435907
17995.851000 17995.850000 1.000000 -0.356439 8.455192 12.075101 7.289999
17996.078000 17996.100000 1.000000 -0.355279 8.458255 12.066370 7.153366
17996.348000 17996.350000 1.000000 -0.354764 8.454628 12.054873 6.994251
17996.618000 17996.600000 1.000000 -0.353622 8.456417 12.043330 6.838751
17996.859000 17996.850000 1.000000 -0.352619 8.455800 12.030743 6.695310
17997.087000 17997.100000 1.000000 -0.351686 8.454431 12.017375 6.563968
17997.342000 17997.350000 1.000000 -0.350519 8.450121 11.997074 6.421272
17997.584000 17997.600000 1.000000 -0.349452 8.449823 11.984012 6.289409
17997.854000 17997.850000 1.000000 -0.348002 8.449715 11.965713 6.160888
17998.124000 17998.100000 1.000000 -0.346647 8.447352 11.945115 6.043609
17998.380000 17998.350000 1.000000 -0.344835 8.445613 11.920845 5.935375
17998.621000 17998.600000 1.000000 -0.343179 8.444728 11.900104 5.845503
17998.863000 17998.850000 1.000000 -0.341593 8.441856 11.877337 5.770746
17999.090000 17999.100000 1.000000 -0.339875 8.441675 11.857986 5.706948
17999.375000 17999.350000 1.000000 -0.338126 8.438836 11.830353 5.638056
17999.602000 17999.600000 1.000000 -0.336096 8.437396 11.807314 5.585889
17999.858000 17999.850000 1.000000 -0.334162 8.434247 11.780715 5.534920
18000.128000 18000.100000 1.000000 -0.332170 8.434323 11.756158 5.489475
18000.370000 18000.350000 1.000000 -0.329852 8.435654 11.731240 5.446055
18000.625000 18000.600000 1.000000 -0.328347 8.431482 11.705439 5.401628
18000.839000 18000.850000 1.000000 -0.326100 8.433235 11.684750 5.365411
18001.095000 18001.100000 1.000000 -0.323900 8.427062 11.650923 5.315838
18001.365000 18001.350000 1.000000 -0.321438 8.427624 11.621697 5.263083
18001.606000 18001.600000 1.000000 -0.319150 8.428284 11.595957 5.209256
18001.862000 18001.850000 1.000000 -0.316870 8.425101 11.563857 5.147414
18002.132000 18002.100000 1.000000 -0.314280 8.422246 11.528185 5.080362
18002.374000 18002.350000 1.000000 -0.311112 8.422959 11.494372 5.011643
18002.601000 18002.600000 1.000000 -0.308316 8.418263 11.459037 4.941465
18002.857000 18002.850000 1.000000 -0.304871 8.418987 11.420735 4.862891
18003.085000 18003.100000 1.000000 -0.301490 8.418515 11.383146 4.781449
18003.355000 18003.350000 1.000000 -0.297899 8.419013 11.340526 4.687947
18003.597000 18003.600000 1.000000 -0.293912 8.416386 11.292561 4.597411
18003.881000 18003.850000 1.000000 -0.289454 8.413102 11.233789 4.489808
18004.109000 18004.100000 1.000000 -0.284880 8.411622 11.184984 4.399427
18004.322000 18004.350000 1.000000 -0.279871 8.410751 11.133678 4.307215
18004.592000 18004.600000 1.000000 -0.274634 8.409379 11.070582 4.198754
18004.862000 18004.850000 1.000000 -0.268684 8.409090 11.001309 4.086603
18005.104000 18005.100000 1.000000 -0.262488 8.408762 10.933986 3.981880
18005.346000 18005.350000 1.000000 -0.255134 8.404844 10.849303 3.865251
18005.630000 18005.600000 1.000000 -0.247605 8.404277 10.760751 3.744269
18005.858000 18005.850000 1.000000 -0.239764 8.404553 10.681813 3.642125
18006.086000 18006.100000 1.000000 -0.231042 8.409098 10.601769 3.538894
18006.342000 18006.350000 1.000000 -0.222270 8.406598 10.502688 3.427875
18006.598000 18006.600000 1.000000 -0.213027 8.411373 10.410303 3.319805
18006.839000 18006.850000 1.000000 -0.202656 8.410477 10.309394 3.220621
18007.095000 18007.100000 1.000000 -0.192476 8.409773 10.199266 3.113770
18007.351000 18007.350000 1.000000 -0.181517 8.409171 10.085041 3.007841
18007.579000 18007.600000 1.000000 -0.170707 8.404666 9.981782 2.919476
18007.849000 18007.850000 1.000000 -0.159344 8.405418 9.859836 2.820252
18008.077000 18008.100000 1.000000 -0.147776 8.404230 9.751450 2.736248
18008.319000 18008.350000 1.000000 -0.136544 8.406715 9.647433 2.656530
18008.589000 18008.600000 1.000000 -0.124048 8.404604 9.521167 2.570218
18008.845000 18008.850000 1.000000 -0.112046 8.402352 9.396516 2.488272
18009.116000 18009.100000 1.000000 -0.099170 8.402076 9.275821 2.411870
18009.343000 18009.350000 1.000000 -0.087377 8.399597 9.168682 2.353505
18009.585000 18009.600000 1.000000 -0.074921 8.399341 9.061140 2.294492
18009.827000 18009.850000 1.000000 -0.063313 8.400941 8.954373 2.240031
18010.083000 18010.100000 1.000000 -0.050717 8.401964 8.839406 2.181785
18010.311000 18010.350000 1.000000 -0.038119 8.397009 8.733305 2.137973
18010.581000 18010.600000 1.000000 -0.025125 8.397571 8.619417 2.090671
18010.852000 18010.850000 1.000000 -0.012749 8.398309 8.506055 2.044935
18011.108000 18011.100000 1.000000 -0.000625 8.393797 8.393920 2.005314
18011.350000 18011.350000 1.000000 0.011173 8.393334 8.300192 1.974354
18011.577000 18011.600000 1.000000 0.023412 8.388905 8.201023 1.945479
18011.834000 18011.850000 1.000000 0.035182 8.388945 8.099084 1.916955
18012.075000 18012.100000 1.000000 0.046751 8.388982 8.010969 1.895485
18012.332000 18012.350000 1.000000 0.057554 8.390872 7.921663 1.873623
18012.602000 18012.600000 1.000000 0.068770 8.390744 7.828474 1.855392
18012.858000 18012.850000 1.000000 0.079522 8.400332 7.750952 1.841082
18013.115000 18013.100000 1.000000 0.090336 8.402725 7.672797 1.828492
18013.328000 18013.350000 1.000000 0.099958 8.399945 7.603599 1.818154
18013.570000 18013.600000 1.000000 0.109550 8.397851 7.532208 1.807002
18013.826000 18013.850000 1.000000 0.118914 8.398545 7.459735 1.797168
18014.083000 18014.100000 1.000000 0.127970 8.401392 7.389904 1.791983
18014.353000 18014.350000 1.000000 0.137136 8.397874 7.318266 1.782877
18014.609000 18014.600000 1.000000 0.146071 8.396868 7.253409 1.773970
18014.851000 18014.850000 1.000000 0.154449 8.396847 7.193090 1.769911
18015.093000 18015.100000 1.000000 0.162521 8.396874 7.138392 1.760138
18015.321000 18015.350000 1.000000 0.169736 8.394641 7.085341 1.754249
18015.577000 18015.600000 1.000000 0.177365 8.396404 7.033612 1.751050
18015.834000 18015.850000 1.000000 0.184841 8.393519 6.978208 1.741763
18016.104000 18016.100000 1.000000 0.191490 8.388590 6.925892 1.731775
18016.375000 18016.350000 1.000000 0.198076 8.393183 6.881894 1.727102
18016.617000 18016.600000 1.000000 0.203922 8.392985 6.842470 1.721245
18016.859000 18016.850000 1.000000 0.209247 8.393008 6.806429 1.713901
18017.101000 18017.100000 1.000000 0.214490 8.393199 6.773081 1.710994
18017.357000 18017.350000 1.000000 0.218890 8.390762 6.740336 1.703609
18017.599000 18017.600000 1.000000 0.222834 8.388279 6.712719 1.699519
18017.856000 18017.850000 1.000000 0.226655 8.386785 6.685184 1.691335
18018.112000 18018.100000 1.000000 0.229588 8.389494 6.667863 1.688683
18018.354000 18018.350000 1.000000 0.232235 8.393061 6.653683 1.685387
18018.596000 18018.600000 1.000000 0.234734 8.397681 6.641084 1.684508
18018.839000 18018.850000 1.000000 0.236252 8.395543 6.629225 1.678750
18019.109000 18019.100000 1.000000 0.238372 8.397921 6.616689 1.679154
18019.366000 18019.350000 1.000000 0.239297 8.396325 6.609435 1.672679
18019.608000 18019.600000 1.000000 0.240415 8.398251 6.603553 1.673184
18019.878000 18019.850000 1.000000 0.241370 8.392793 6.592640 1.664650
18020.135000 18020.100000 1.000000 0.242058 8.393793 6.589101 1.661977
18020.363000 18020.350000 1.000000 0.242617 8.393431 6.585285 1.663220
18020.605000 18020.600000 1.000000 0.242778 8.389398 6.581020 1.663708
18020.833000 18020.850000 1.000000 0.243071 8.390027 6.579909 1.659170
18021.104000 18021.100000 1.000000 0.243444 8.391387 6.578187 1.654057
18021.374000 18021.350000 1.000000 0.243763 8.392135 6.576642 1.656542
18021.616000 18021.600000 1.000000 0.244230 8.391610 6.573206 1.651416
18021.844000 18021.850000 1.000000 0.244347 8.389069 6.570447 1.647438
18022.101000 18022.100000 1.000000 0.244599 8.388977 6.568816 1.643746
18022.343000 18022.350000 1.000000 0.245316 8.386904 6.562807 1.637393
18022.600000 18022.600000 1.000000 0.245723 8.387607 6.560274 1.631588
18022.870000 18022.850000 1.000000 0.246385 8.384325 6.553363 1.622381
18023.127000 18023.100000 1.000000 0.247357 8.384619 6.546900 1.619057
18023.369000 18023.350000 1.000000 0.248267 8.384339 6.540851 1.612369
18023.626000 18023.600000 1.000000 0.249379 8.382912 6.532162 1.604222
18023.854000 18023.850000 1.000000 0.250659 8.381011 6.523002 1.596786
18024.096000 18024.100000 1.000000 0.251917 8.379657 6.513366 1.585538
18024.338000 18024.350000 1.000000 0.253708 8.379564 6.502334 1.578177
18024.595000 18024.600000 1.000000 0.255711 8.380221 6.489317 1.567217
18024.851000 18024.850000 1.000000 0.258181 8.379485 6.473072 1.556735
18025.108000 18025.100000 1.000000 0.260727 8.379059 6.456000 1.545848
18025.364000 18025.350000 1.000000 0.263579 8.377216 6.436493 1.534393
18025.607000 18025.600000 1.000000 0.266374 8.377641 6.418548 1.522413
18025.863000 18025.850000 1.000000 0.269594 8.378076 6.397123 1.514721
18026.091000 18026.100000 1.000000 0.273692 8.375834 6.369992 1.501480
18026.334000 18026.350000 1.000000 0.277542 8.375560 6.346499 1.490698
18026.590000 18026.600000 1.000000 0.282436 8.378480 6.318106 1.481096
18026.876000 18026.850000 1.000000 0.287238 8.374556 6.282523 1.463252
18027.075000 18027.100000 1.000000 0.291990 8.375548 6.256921 1.456264
18027.346000 18027.350000 1.000000 0.296904 8.373839 6.221371 1.443318
18027.574000 18027.600000 1.000000 0.302342 8.375862 6.191164 1.433472
18028.686000 18028.680000 1.000000 0.324799 8.370684 6.048058 1.392875
18029.741000 18029.780000 1.000000 0.340613 8.368278 5.953909 1.373286
18030.882000 18030.890000 1.000000 0.341093 8.364502 5.948962 1.387167
18032.024000 18032.030000 1.000000 0.322115 8.361617 6.061590 1.441730
18033.165000 18033.180000 1.000000 0.287471 8.363106 6.268619 1.522420
18034.377000 18034.360000 1.000000 0.248096 8.344252 6.512885 1.614321
18035.590000 18035.550000 1.000000 0.206767 8.323245 6.760057 1.701844
18037.003000 18036.760000 1.000000 0.173577 8.321478 7.023599 1.788972
18037.931000 18037.990000 1.000000 0.145995 8.330419 7.184538 1.835289
18039.273000 18039.240000 1.000000 0.125678 8.346169 7.365870 1.886000
18040.529000 18040.510000 1.000000 0.111866 8.350193 7.465567 1.912588
18041.843000 18041.800000 1.000000 0.105079 8.347050 7.514543 1.925380
18043.157000 18043.110000 1.000000 0.103150 8.340664 7.523268 1.934174
18044.428000 18044.430000 1.000000 0.102156 8.338195 7.528552 1.944929
18045.771000 18045.780000 1.000000 0.099262 8.338723 7.551036 1.957420
18047.128000 18047.140000 1.000000 0.092498 8.329131 7.592712 1.976463
18048.514000 18048.530000 1.000000 0.083539 8.324273 7.657583 1.991911
18049.915000 18049.930000 1.000000 0.074845 8.321637 7.721622 2.003509
18051.316000 18051.350000 1.000000 0.069033 8.316630 7.761587 2.000500
18052.802000 18052.790000 1.000000 0.066982 8.311843 7.773280 1.980615
18054.261000 18054.250000 1.000000 0.067715 8.307774 7.763704 1.955074
18055.720000 18055.730000 1.000000 0.070423 8.310827 7.745751 1.926718
18057.250000 18057.230000 1.000000 0.073588 8.313878 7.724029 1.898752
18058.766000 18058.740000 1.000000 0.076651 8.308169 7.695018 1.876256
18060.326000 18060.280000 1.000000 0.079428 8.301195 7.667119 1.868123
18061.857000 18061.840000 1.000000 0.081775 8.299050 7.647641 1.874509
18063.446000 18063.410000 1.000000 0.085049 8.291761 7.615470 1.886364
18065.078000 18065.000000 1.000000 0.090034 8.290096 7.575319 1.902976
18066.624000 18066.610000 1.000000 0.096352 8.287375 7.526575 1.914362
18068.271000 18068.250000 1.000000 0.103881 8.280586 7.463392 1.916358
18069.919000 18069.900000 1.000000 0.111670 8.277975 7.402984 1.912450
18071.566000 18071.570000 1.000000 0.119534 8.270178 7.338900 1.901450
18073.257000 18073.250000 1.000000 0.127847 8.264176 7.271877 1.886707
18074.977000 18074.960000 1.000000 0.136157 8.261314 7.209083 1.877119
18076.682000 18076.690000 1.000000 0.143980 8.261115 7.153487 1.866420
18078.417000 18078.430000 1.000000 0.150171 8.255499 7.104274 1.855775
18080.195000 18080.200000 1.000000 0.154589 8.246856 7.065593 1.846827
18082.003000 18081.980000 1.000000 0.157345 8.236451 7.037338 1.837063
18083.796000 18083.780000 1.000000 0.158682 8.211023 7.006229 1.821632
18085.632000 18085.600000 1.000000 0.160147 8.191680 6.979363 1.802950
18087.484000 18087.440000 1.000000 0.161532 8.211289 6.986448 1.793083
18089.321000 18089.300000 1.000000 0.162866 8.225957 6.989659 1.782757
18091.173000 18091.180000 1.000000 0.164045 8.225577 6.981180 1.772211
18093.112000 18093.080000 1.000000 0.164994 8.217305 6.967457 1.763356
18095.022000 18095.000000 1.000000 0.164634 8.208786 6.962718 1.764226
18096.962000 18096.930000 1.000000 0.162276 8.207311 6.978000 1.776482
18098.873000 18098.890000 1.000000 0.157155 8.205955 7.012219 1.796475
18100.827000 18100.860000 1.000000 0.150026 8.199776 7.057051 1.827512
18102.869000 18102.860000 1.000000 0.141687 8.187296 7.106124 1.859425
18104.853000 18104.870000 1.000000 0.133580 8.173558 7.151497 1.890805
18106.910000 18106.900000 1.000000 0.125827 8.181504 7.214313 1.921864
18108.938000 18108.950000 1.000000 0.118279 8.182041 7.268694 1.943609
18111.024000 18111.020000 1.000000 0.111418 8.176534 7.314424 1.955441
18113.126000 18113.110000 1.000000 0.105108 8.171792 7.356564 1.961661
18115.242000 18115.210000 1.000000 0.099981 8.170145 7.392917 1.963066
18117.373000 18117.340000 1.000000 0.096511 8.153143 7.403085 1.956593
18119.533000 18119.490000 1.000000 0.094640 8.116489 7.383582 1.946488
18121.665000 18121.650000 1.000000 0.093791 8.101263 7.375910 1.936127
18123.841000 18123.830000 1.000000 0.092485 8.132085 7.413697 1.937920
18126.032000 18126.040000 1.000000 0.091744 8.140449 7.426836 1.938644
18128.238000 18128.260000 1.000000 0.090865 8.135968 7.429293 1.937618
18130.473000 18130.500000 1.000000 0.090819 8.127687 7.422053 1.931194
18132.766000 18132.760000 1.000000 0.091080 8.105648 7.399971 1.924547
18135.045000 18135.040000 1.000000 0.091839 8.117597 7.405270 1.923865
18137.383000 18137.340000 1.000000 0.092689 8.115432 7.396942 1.926045
18139.693000 18139.650000 1.000000 0.094483 8.111096 7.379784 1.930029
18142.032000 18141.990000 1.000000 0.096919 8.103910 7.355381 1.933983
18144.371000 18144.340000 1.000000 0.100130 8.097222 7.325763 1.939669
18146.755000 18146.720000 1.000000 0.103600 8.089210 7.293325 1.946438
18149.125000 18149.110000 1.000000 0.107367 8.072404 7.250715 1.952011
18151.524000 18151.520000 1.000000 0.109884 8.075596 7.235274 1.963113
18153.953000 18153.950000 1.000000 0.111838 8.073683 7.219452 1.969128
18156.397000 18156.400000 1.000000 0.113555 8.068584 7.202461 1.972077
18158.856000 18158.870000 1.000000 0.114320 8.063531 7.192444 1.972744
18161.344000 18161.360000 1.000000 0.114347 8.054665 7.184346 1.970344
18163.863000 18163.870000 1.000000 0.113114 8.048019 7.187258 1.969729
18166.425000 18166.390000 1.000000 0.111677 8.043837 7.193931 1.967648
18168.959000 18168.940000 1.000000 0.110257 8.032281 7.193722 1.960295
18171.523000 18171.500000 1.000000 0.109136 8.027939 7.197921 1.955371
18174.131000 18174.090000 1.000000 0.108761 8.019672 7.193198 1.941930
18176.711000 18176.690000 1.000000 0.108881 8.010137 7.183783 1.927808
18179.335000 18179.310000 1.000000 0.108517 8.001700 7.178837 1.917633
18181.975000 18181.950000 1.000000 0.108654 7.988998 7.166458 1.907529
18184.629000 18184.610000 1.000000 0.108186 7.984160 7.165479 1.902268
18187.314000 18187.290000 1.000000 0.107520 7.981480 7.167876 1.902878
18189.999000 18189.990000 1.000000 0.106437 7.968767 7.164164 1.905347
18192.743000 18192.710000 1.000000 0.105218 7.965213 7.169778 1.915273
18195.474000 18195.440000 1.000000 0.103593 7.956047 7.173166 1.927502
18198.263000 18198.200000 1.000000 0.101507 7.957584 7.189657 1.942965
18200.981000 18200.970000 1.000000 0.098747 7.947697 7.200348 1.955284
18203.786000 18203.770000 1.000000 0.096538 7.943647 7.212616 1.970347
18206.636000 18206.580000 1.000000 0.094673 7.934431 7.217852 1.977502
18209.386000 18209.410000 1.000000 0.093213 7.926303 7.220886 1.989787
18212.252000 18212.260000 1.000000 0.091738 7.919601 7.225429 1.998533
18215.163000 18215.130000 1.000000 0.090457 7.911149 7.226967 2.005737
18218.046000 18218.020000 1.000000 0.089488 7.901356 7.224990 2.010794
18220.930000 18220.920000 1.000000 0.088295 7.888572 7.221876 2.014721
18223.873000 18223.850000 1.000000 0.087289 7.838733 7.183512 2.001281
18226.787000 18226.800000 1.000000 0.086468 7.865980 7.214368 2.006336
18229.761000 18229.760000 1.000000 0.085866 7.875746 7.227729 2.000791
18232.707000 18232.740000 1.000000 0.085611 7.866509 7.221044 1.990177
18235.785000 18235.750000 1.000000 0.086011 7.859310 7.211541 1.975503
18238.806000 18238.770000 1.000000 0.087424 7.852626 7.195249 1.958150
18241.872000 18241.810000 1.000000 0.088773 7.842878 7.176608 1.943208
18244.909000 18244.870000 1.000000 0.089802 7.834024 7.161177 1.933434
18247.962000 18247.950000 1.000000 0.089988 7.828417 7.154711 1.928229
18251.060000 18251.050000 1.000000 0.089447 7.811898 7.143473 1.927520
18254.188000 18254.160000 1.000000 0.089347 7.805498 7.138343 1.934363
18257.303000 18257.300000 1.000000 0.089170 7.801318 7.135766 1.945207
18260.506000 18260.450000 1.000000 0.089378 7.792083 7.125842 1.951905
18263.667000 18263.630000 1.000000 0.089915 7.785251 7.115780 1.958503
18266.858000 18266.820000 1.000000 0.090810 7.776407 7.101343 1.963082
18270.050000 18270.030000 1.000000 0.091727 7.781815 7.099779 1.968723
18273.244000 18273.260000 1.000000 0.092167 7.770541 7.086392 1.969188
18276.512000 18276.520000 1.000000 0.092599 7.752297 7.066709 1.967400
18279.780000 18279.780000 1.000000 0.092168 7.563577 6.897583 1.925724
18283.109000 18283.070000 1.000000 0.092616 7.508694 6.844482 1.916075
18286.395000 18286.380000 1.000000 0.091504 7.710689 7.036402 1.975665
18289.756000 18289.710000 1.000000 0.090538 7.723895 7.055324 1.982255
18293.074000 18293.050000 1.000000 0.089437 7.720008 7.059544 1.984273
18296.422000 18296.420000 1.000000 0.088083 7.718565 7.067782 1.985708
18299.816000 18299.800000 1.000000 0.087056 7.711872 7.068899 1.984192
18303.225000 18303.200000 1.000000 0.085926 7.702241 7.068049 1.981414
18306.651000 18306.630000 1.000000 0.085041 7.689427 7.062536 1.974642
18310.107000 18310.070000 1.000000 0.084272 7.680627 7.059857 1.969431
18313.565000 18313.530000 1.000000 0.083474 7.677927 7.063005 1.963447
18316.979000 18317.000000 1.000000 0.082359 7.665250 7.059174 1.959591
18320.499000 18320.500000 1.000000 0.081853 7.660046 7.058015 1.954994
18324.049000 18324.020000 1.000000 0.081081 7.654748 7.058589 1.956029
18327.585000 18327.560000 1.000000 0.079955 7.643736 7.056370 1.953019
18331.123000 18331.110000 1.000000 0.079197 7.635487 7.054067 1.961120
18334.736000 18334.690000 1.000000 0.078001 7.611752 7.040614 1.965949
18338.307000 18338.280000 1.000000 0.076759 7.574715 7.015024 1.970353
18341.893000 18341.890000 1.000000 0.075694 7.614797 7.059662 1.985821
18345.540000 18345.520000 1.000000 0.074932 7.604713 7.055709 1.992138
18349.218000 18349.170000 1.000000 0.074594 7.595113 7.049182 1.993590
18352.883000 18352.840000 1.000000 0.074215 7.589266 7.046411 1.998638
18356.563000 18356.530000 1.000000 0.073812 7.578182 7.038952 2.001015
18360.261000 18360.240000 1.000000 0.073550 7.565810 7.029299 2.001829
18363.959000 18363.960000 1.000000 0.073310 7.562230 7.027649 2.003506
18367.734000 18367.710000 1.000000 0.073218 7.564022 7.029984 2.005787
18371.494000 18371.470000 1.000000 0.073306 7.556299 7.022196 2.004752
18375.316000 18375.260000 1.000000 0.073072 7.547373 7.015555 2.001406
18379.110000 18379.060000 1.000000 0.072579 7.537558 7.009867 1.997108
18382.905000 18382.880000 1.000000 0.072248 7.524895 7.000397 1.992182
18386.747000 18386.720000 1.000000 0.072054 7.521451 6.998565 1.988318
18390.604000 18390.580000 1.000000 0.071902 7.514497 6.993141 1.986126
18394.508000 18394.460000 1.000000 0.072032 7.508307 6.986466 1.982849
18398.399000 18398.360000 1.000000 0.072367 7.494840 6.971628 1.979569
18402.307000 18402.280000 1.000000 0.072552 7.485481 6.961617 1.976989
18406.230000 18406.210000 1.000000 0.072486 7.478951 6.955988 1.976270
18410.186000 18410.170000 1.000000 0.072089 7.467958 6.948547 1.974888
18414.128000 18414.140000 1.000000 0.071812 7.459574 6.942646 1.975843
18418.191000 18418.140000 1.000000 0.071387 7.451589 6.938187 1.977975
18422.196000 18422.150000 1.000000 0.070679 7.442797 6.934895 1.981091
18426.247000 18426.180000 1.000000 0.070206 7.435475 6.931360 1.985695
18430.256000 18430.230000 1.000000 0.069738 7.427239 6.926923 1.991008
18434.326000 18434.300000 1.000000 0.069020 7.414333 6.919852 1.992841
18438.443000 18438.390000 1.000000 0.068334 7.403374 6.914410 1.993500
18442.561000 18442.500000 1.000000 0.067206 7.398107 6.917260 1.999721
18446.711000 18446.620000 1.000000 0.066294 7.390641 6.916581 2.000099
18450.819000 18450.770000 1.000000 0.065506 7.378613 6.910785 2.000074
18454.973000 18454.930000 1.000000 0.064599 7.368648 6.907709 2.000757
18459.158000 18459.120000 1.000000 0.063480 7.359892 6.907219 2.000630
18463.346000 18463.320000 1.000000 0.062997 7.352879 6.903945 1.999319
18467.595000 18467.540000 1.000000 0.062058 7.345363 6.903387 1.999253
18471.817000 18471.780000 1.000000 0.061324 7.335263 6.898933 1.996950
18476.040000 18476.040000 1.000000 0.060684 7.324823 6.893498 1.995967
18480.310000 18480.320000 1.000000 0.060273 7.290834 6.864364 1.987315
18484.628000 18484.620000 1.000000 0.060028 7.299653 6.874368 1.992642
18488.962000 18488.940000 1.000000 0.059563 7.301925 6.879687 1.995270
18493.313000 18493.270000 1.000000 0.059535 7.293181 6.871658 1.994564
18497.652000 18497.630000 1.000000 0.059027 7.283039 6.865559 1.994970
18502.007000 18502.000000 1.000000 0.058623 7.274016 6.859845 1.993947
18506.440000 18506.400000 1.000000 0.057972 7.269426 6.859977 1.996606
18510.860000 18510.810000 1.000000 0.057365 7.261389 6.856551 1.997271
18515.312000 18515.240000 1.000000 0.056861 7.250033 6.849307 1.997623
18519.751000 18519.690000 1.000000 0.056291 7.236951 6.840833 1.998036
18524.177000 18524.160000 1.000000 0.055781 7.235507 6.842953 2.002029
18528.665000 18528.650000 1.000000 0.055516 7.236011 6.845242 2.007441
18533.201000 18533.160000 1.000000 0.054903 7.224391 6.838446 2.009587
18537.724000 18537.680000 1.000000 0.054736 7.212977 6.828770 2.008824
18542.265000 18542.230000 1.000000 0.054427 7.206615 6.824849 2.010586
18546.822000 18546.790000 1.000000 0.054228 7.196340 6.816494 2.011541
18551.413000 18551.380000 1.000000 0.053708 7.185083 6.809371 2.009904
18555.990000 18555.980000 1.000000 0.053085 7.172548 6.801706 2.007726
18560.645000 18560.600000 1.000000 0.052687 7.162493 6.794892 2.005209
18565.242000 18565.240000 1.000000 0.052293 7.151958 6.787560 2.005750
18569.948000 18569.900000 1.000000 0.051728 7.140817 6.780847 2.003072
18574.625000 18574.580000 1.000000 0.050914 7.130095 6.776174 2.003189
18579.305000 18579.280000 1.000000 0.050702 7.119122 6.767163 2.000388
18584.048000 18584.000000 1.000000 0.050218 7.109389 6.761175 2.001230
18588.778000 18588.730000 1.000000 0.049695 7.096964 6.752890 2.002138
18593.556000 18593.490000 1.000000 0.049065 7.086254 6.746973 2.002940
18598.260000 18598.260000 1.000000 0.048542 7.076740 6.741412 2.003995
18603.089000 18603.060000 1.000000 0.047788 7.063118 6.733502 2.003337
18607.935000 18607.870000 1.000000 0.046898 7.050108 6.727106 2.003346
18612.753000 18612.700000 1.000000 0.046376 7.037680 6.718742 2.001812
18617.589000 18617.550000 1.000000 0.045313 7.022178 6.711080 2.001925
18622.443000 18622.420000 1.000000 0.044516 7.012718 6.707384 2.002632
18627.360000 18627.310000 1.000000 0.043715 7.003987 6.704423 2.005807
18632.280000 18632.220000 1.000000 0.043055 6.996207 6.701374 2.007113
18637.172000 18637.140000 1.000000 0.042467 6.991593 6.700880 2.009763
18642.128000 18642.090000 1.000000 0.041514 6.979621 6.695800 2.012059
18647.101000 18647.050000 1.000000 0.041111 6.969478 6.688791 2.011208
18652.078000 18652.040000 1.000000 0.040605 6.958915 6.681990 2.011870
18657.102000 18657.040000 1.000000 0.040244 6.946494 6.672484 2.010036
18662.099000 18662.060000 1.000000 0.039612 6.935150 6.665812 2.011009
18667.099000 18667.100000 1.000000 0.038819 6.921075 6.657516 2.009856
18672.223000 18672.160000 1.000000 0.038374 6.910049 6.649911 2.009472
18677.320000 18677.240000 1.000000 0.037973 6.902086 6.644913 2.009269
18682.374000 18682.340000 1.000000 0.037412 6.891104 6.638052 2.007756
18687.491000 18687.460000 1.000000 0.037028 6.878416 6.628378 2.006515
18692.597000 18692.590000 1.000000 0.036420 6.865152 6.619614 2.007231
18697.797000 18697.750000 1.000000 0.036050 6.853653 6.610979 2.006821
18703.015000 18702.920000 1.000000 0.035691 6.843868 6.603914 2.006652
18708.175000 18708.120000 1.000000 0.034903 6.833104 6.598720 2.005079
18713.384000 18713.330000 1.000000 0.034712 6.818361 6.585756 2.003018
18718.595000 18718.560000 1.000000 0.034117 6.809307 6.580908 2.005017
18723.887000 18723.810000 1.000000 0.033177 6.796514 6.574732 2.004798
18729.135000 18729.080000 1.000000 0.032872 6.787316 6.567824 2.008020
18734.387000 18734.370000 1.000000 0.031991 6.772592 6.559314 2.006795
18739.734000 18739.680000 1.000000 0.031540 6.763453 6.553451 2.005833
