# XDI/1.0 BlueSky/1.10.0 BMM/2023-1.0-py310-tiled
# Beamline.name: BMM (06BM) -- Beamline for Materials Measurement (NIST)
# Beamline.xray_source: NSLS-II three-pole wiggler
# Beamline.collimation: paraboloid mirror, 5 nm Rh on 30 nm Pt
# Beamline.focusing: not in use
# Beamline.harmonic_rejection: flat mirror, Si stripe, pitch = 7.0 mrad relative to beam
# Beamline.software: Bluesky 1.10.0, Ophyd 1.7.0, DataBroker 2.0.0b13, Python 3.10.8, 2023-1.0-py310-tiled
# Detector.I0: 10 cm N2
# Detector.I1: 25 cm N2
# Detector.I2: 25 cm N2
# Element.symbol: Fe
# Element.edge: K
# Element.reference: Fe
# Element.reference_material: Fe foil
# Facility.name: NSLS-II
# Facility.energy: 3.0
# Facility.current: 400.2
# Facility.mode: top-off
# Facility.GUP: 123456
# Facility.SAF: 301027
# Facility.cycle: 2023-2
# Mono.name: Si(111)
# Mono.d_spacing: 3.1351860
# Mono.encoder_resolution: 0.0000050 deg/ct
# Mono.angle_offset: 16.0754326 deg
# Mono.scan_mode: pseudo channel cut
# Mono.scan_type: step
# Mono.direction: forward in energy
# Sample.name: CaFeSi2O6
# Sample.prep: PEG pellet
# Sample.x: 142.329 mm
# Sample.y: 114.126 mm
# Sample.SDD_position: 205.000 mm
# Scan.experimenters: Bruce Ravel
# Scan.edge_energy: 7112.0
# Scan.start_time: 2023-05-05T19:08:19
# Scan.end_time: 2023-05-05T19:16:21
# Scan.transient_id: 74576
# Scan.uid: bfc24902-2e86-461c-92aa-a3c7fc4224bc
# Scan.plot_hint: ln(I0/It)  --  ln($5/$6)
# Column.1: energy eV
# Column.2: requested_energy eV
# Column.3: measurement_time seconds
# Column.4: xmu 
# Column.5: I0 nA
# Column.6: It nA
# Column.7: Ir nA
# ///////////
# courtesy Martin Stennett, University of Sheffield
# -----------
# energy  requested_energy  measurement_time  xmu  I0  It  Ir
  6912.003  6912.000  0.500  1.683876  154.182274  28.624390  5.374436
  6922.011  6922.000  0.500  1.674810  154.092586  28.868291  5.459068
  6932.017  6932.000  0.500  1.665780  154.062652  29.124492  5.546587
  6942.033  6942.000  0.500  1.656969  154.091822  29.387813  5.635333
  6951.983  6952.000  0.500  1.648022  154.098607  29.653217  5.726139
  6962.002  6962.000  0.500  1.639152  154.085714  29.914912  5.816580
  6972.006  6972.000  0.500  1.630015  154.042910  30.181117  5.908954
  6982.017  6982.000  0.500  1.621206  154.040772  30.447726  6.002335
  6992.014  6992.000  0.500  1.612562  154.022350  30.708391  6.094384
  7002.011  7002.000  0.500  1.603804  153.970513  30.968097  6.186719
  7012.014  7012.000  0.500  1.595464  153.899418  31.213031  6.277954
  7022.008  7022.000  0.500  1.586858  153.837640  31.470158  6.370573
  7032.014  7032.000  0.500  1.578614  153.769451  31.716603  6.461843
  7042.013  7042.000  0.500  1.569688  153.677025  31.981741  6.556263
  7052.011  7052.000  0.500  1.560883  153.612393  32.251005  6.650314
  7062.004  7062.000  0.500  1.552532  152.912653  32.373340  6.712534
  7072.013  7072.000  0.500  1.544602  153.423887  32.740179  6.822197
  7081.978  7082.000  0.500  1.536019  153.365612  33.009824  6.903292
  7083.978  7084.000  0.500  1.534667  153.087404  32.994535  6.902527
  7085.978  7086.000  0.500  1.533134  153.254996  33.081331  6.923031
  7087.985  7088.000  0.500  1.531098  153.227698  33.142851  6.935946
  7089.983  7090.000  0.500  1.529650  153.230726  33.191537  6.947199
  7091.991  7092.000  0.500  1.528086  153.198825  33.236554  6.952241
  7093.991  7094.000  0.500  1.525961  153.172473  33.301532  6.961792
  7096.325  7096.000  0.500  1.524090  153.133872  33.355484  6.964651
  7098.003  7098.000  0.500  1.522851  153.157744  33.402060  6.962848
  7099.996  7100.000  0.500  1.520980  153.134678  33.459578  6.955176
  7102.003  7102.000  0.500  1.519250  153.113661  33.512918  6.938308
  7102.296  7102.300  0.500  1.519116  153.091311  33.512501  6.931901
  7102.591  7102.600  0.500  1.518781  153.050290  33.514758  6.927902
  7102.889  7102.900  0.500  1.518528  153.057371  33.524782  6.924532
  7103.190  7103.200  0.500  1.518039  153.082946  33.546778  6.920321
  7103.485  7103.500  0.500  1.518039  153.081203  33.546401  6.913603
  7103.785  7103.800  0.500  1.517712  153.054361  33.551494  6.905843
  7104.089  7104.100  0.500  1.517537  153.055880  33.557690  6.898911
  7104.384  7104.400  0.500  1.517463  153.023511  33.553087  6.888526
  7104.683  7104.700  0.500  1.516909  153.036207  33.574470  6.884007
  7104.989  7105.000  0.500  1.516862  153.076602  33.584902  6.874102
  7105.287  7105.300  0.500  1.516537  153.086632  33.598001  6.865257
  7105.589  7105.600  0.500  1.516314  153.070935  33.602067  6.852814
  7105.890  7105.900  0.500  1.516010  153.393637  33.683150  6.854486
  7106.188  7106.200  0.500  1.515740  153.408628  33.695544  6.840448
  7106.488  7106.500  0.500  1.515417  153.369036  33.697731  6.823741
  7106.794  7106.800  0.500  1.515356  153.382034  33.702627  6.805417
  7107.092  7107.100  0.500  1.515251  153.363858  33.702170  6.784076
  7107.383  7107.400  0.500  1.515129  153.375755  33.708908  6.760284
  7107.685  7107.700  0.500  1.514831  153.386437  33.721301  6.734134
  7107.987  7108.000  0.500  1.514425  153.363608  33.729965  6.702782
  7108.289  7108.300  0.500  1.514178  153.356068  33.736646  6.664487
  7108.593  7108.600  0.500  1.513958  153.330152  33.738348  6.618911
  7108.886  7108.900  0.500  1.513743  153.330086  33.745591  6.567049
  7109.191  7109.200  0.500  1.513599  153.311618  33.746387  6.500820
  7109.491  7109.500  0.500  1.513399  153.312707  33.753396  6.416397
  7109.799  7109.800  0.500  1.513000  153.299178  33.763877  6.301959
  7110.099  7110.100  0.500  1.512837  153.289526  33.767254  6.147456
  7110.395  7110.400  0.500  1.512800  153.261784  33.762380  5.924695
  7110.693  7110.700  0.500  1.512491  153.233579  33.766609  5.615869
  7110.995  7111.000  0.500  1.512314  153.225930  33.770895  5.207936
  7111.297  7111.300  0.500  1.512199  153.199150  33.768880  4.720286
  7111.595  7111.600  0.500  1.512006  153.172981  33.769614  4.221631
  7111.891  7111.900  0.500  1.511696  153.111288  33.766479  3.774097
  7112.194  7112.200  0.500  1.511594  153.079731  33.762967  3.415811
  7112.492  7112.500  0.500  1.511353  153.041081  33.762596  3.148045
  7112.798  7112.800  0.500  1.511565  153.022630  33.751371  2.943799
  7113.094  7113.100  0.500  1.511662  153.013787  33.746142  2.781684
  7113.397  7113.400  0.500  1.511093  153.000525  33.762418  2.641303
  7113.697  7113.700  0.500  1.510774  152.991696  33.771234  2.513766
  7114.000  7114.000  0.500  1.510585  152.982727  33.775649  2.397476
  7114.302  7114.300  0.500  1.510260  152.974731  33.784872  2.295745
  7114.598  7114.600  0.500  1.510252  152.971122  33.784340  2.212222
  7114.901  7114.900  0.500  1.509966  152.958712  33.791259  2.147226
  7115.197  7115.200  0.500  1.509597  152.913977  33.793854  2.100657
  7115.500  7115.500  0.500  1.509234  152.886223  33.799969  2.066845
  7115.802  7115.800  0.500  1.508793  152.884071  33.814405  2.043389
  7116.099  7116.100  0.500  1.508596  152.876338  33.819364  2.024227
  7116.393  7116.400  0.500  1.508464  152.893371  33.827590  2.004801
  7116.689  7116.700  0.500  1.508155  152.875660  33.834111  1.977337
  7116.998  7117.000  0.500  1.508131  152.866361  33.832866  1.934849
  7117.299  7117.300  0.500  1.507930  152.857735  33.837769  1.874636
  7117.598  7117.600  0.500  1.508017  152.834370  33.829660  1.794123
  7117.896  7117.900  0.500  1.508460  152.826408  33.812895  1.695092
  7118.197  7118.200  0.500  1.508901  152.801359  33.792470  1.583249
  7118.502  7118.500  0.500  1.509167  152.800781  33.783337  1.468258
  7118.807  7118.800  0.500  1.509364  152.801685  33.776885  1.356711
  7119.104  7119.100  0.500  1.510055  152.779530  33.748659  1.253413
  7119.398  7119.400  0.500  1.510721  152.750921  33.719874  1.157778
  7119.699  7119.700  0.500  1.511799  152.727083  33.678299  1.067173
  7120.000  7120.000  0.500  1.512860  152.721368  33.641338  0.980050
  7120.296  7120.300  0.500  1.514260  152.698160  33.589149  0.896976
  7120.593  7120.600  0.500  1.515457  152.663377  33.541313  0.819807
  7120.894  7120.900  0.500  1.516635  152.648959  33.498673  0.750790
  7121.197  7121.200  0.500  1.517896  152.638781  33.454222  0.689239
  7121.500  7121.500  0.500  1.518854  152.613061  33.416579  0.638008
  7121.801  7121.800  0.500  1.519812  152.608053  33.383481  0.594492
  7122.105  7122.100  0.500  1.520819  152.583232  33.344457  0.557968
  7122.397  7122.400  0.500  1.522037  152.573069  33.301625  0.526059
  7122.705  7122.700  0.500  1.523430  152.580270  33.256861  0.497229
  7123.004  7123.000  0.500  1.524831  152.557290  33.205303  0.472711
  7123.305  7123.300  0.500  1.526717  152.537546  33.138447  0.450335
  7123.600  7123.600  0.500  1.528664  152.496915  33.065156  0.431403
  7123.901  7123.900  0.500  1.530550  152.497924  33.003085  0.414649
  7124.200  7124.200  0.500  1.532034  152.468584  32.947791  0.399011
  7124.501  7124.500  0.500  1.533642  152.466399  32.894381  0.384613
  7124.803  7124.800  0.500  1.535249  152.443039  32.836533  0.371573
  7125.097  7125.100  0.500  1.536890  152.427845  32.779442  0.359277
  7125.399  7125.400  0.500  1.538308  152.407944  32.728729  0.347460
  7125.700  7125.700  0.500  1.539434  152.392726  32.688603  0.336336
  7126.002  7126.000  0.500  1.540110  152.348110  32.656975  0.326015
  7126.303  7126.300  0.500  1.540458  152.346973  32.645344  0.315572
  7126.605  7126.600  0.500  1.540723  152.323149  32.631603  0.305520
  7126.900  7126.900  0.500  1.541313  152.306451  32.608769  0.294692
  7127.203  7127.200  0.500  1.541898  152.220198  32.571239  0.283532
  7127.503  7127.500  0.500  1.543043  152.280749  32.546920  0.271767
  7127.804  7127.800  0.500  1.544075  152.254807  32.507801  0.260018
  7128.102  7128.100  0.500  1.545580  152.207718  32.448880  0.248367
  7128.397  7128.400  0.500  1.546770  152.175243  32.403371  0.236781
  7128.698  7128.700  0.500  1.547895  152.156230  32.362906  0.224883
  7128.998  7129.000  0.500  1.549012  152.161941  32.327985  0.213234
  7129.300  7129.300  0.500  1.549868  152.109686  32.289223  0.202289
  7129.599  7129.600  0.500  1.551004  152.023885  32.234367  0.192303
  7129.899  7129.900  0.500  1.551072  152.040671  32.235759  0.184014
  7130.205  7130.200  0.500  1.551300  152.019970  32.224015  0.177091
  7130.505  7130.500  0.500  1.551398  151.995259  32.215608  0.171951
  7130.804  7130.800  0.500  1.550669  151.979795  32.235833  0.168590
  7131.100  7131.100  0.500  1.549940  151.960137  32.255152  0.167577
  7131.404  7131.400  0.500  1.549059  151.940795  32.279484  0.168504
  7131.706  7131.700  0.500  1.548319  151.918903  32.298721  0.171497
  7132.003  7132.000  0.500  1.547625  151.887788  32.314520  0.176339
  7132.301  7132.300  0.500  1.547093  151.920017  32.338601  0.182516
  7132.601  7132.600  0.500  1.546222  151.861862  32.354372  0.189786
  7132.899  7132.900  0.500  1.545364  151.853784  32.380422  0.197913
  7133.201  7133.200  0.500  1.544425  151.854280  32.410961  0.206984
  7133.496  7133.500  0.500  1.543492  151.880548  32.446828  0.216484
  7133.798  7133.800  0.500  1.542915  151.865713  32.462366  0.225969
  7134.098  7134.100  0.500  1.542134  151.872507  32.489199  0.234968
  7134.403  7134.400  0.500  1.540918  151.854471  32.524859  0.243576
  7134.707  7134.700  0.500  1.539854  151.889466  32.566971  0.251574
  7135.001  7135.000  0.500  1.538870  151.882047  32.597455  0.258274
  7135.301  7135.300  0.500  1.538038  151.845593  32.616754  0.264298
  7135.603  7135.600  0.500  1.537213  151.838961  32.642261  0.269525
  7135.905  7135.900  0.500  1.536416  151.833419  32.667085  0.273941
  7136.203  7136.200  0.500  1.535604  151.835684  32.694121  0.276902
  7136.503  7136.500  0.500  1.534819  151.852924  32.723491  0.279109
  7136.795  7136.800  0.500  1.534440  151.841840  32.733529  0.280218
  7136.998  7137.000  0.500  1.533871  151.847899  32.753447  0.280342
  7137.998  7137.990  0.500  1.531728  151.846799  32.823489  0.275831
  7139.003  7138.990  0.500  1.530131  151.830572  32.872443  0.264520
  7140.021  7140.010  0.500  1.528826  151.830150  32.915256  0.252199
  7141.079  7141.060  0.500  1.528046  151.806014  32.935696  0.243825
  7142.134  7142.120  0.500  1.527057  151.799649  32.966917  0.242787
  7143.214  7143.200  0.500  1.525956  151.817534  33.007136  0.246719
  7144.313  7144.300  0.500  1.524179  151.814177  33.065090  0.251201
  7145.435  7145.420  0.500  1.522404  151.815335  33.124089  0.250542
  7146.578  7146.560  0.500  1.520714  151.807974  33.178526  0.241644
  7147.724  7147.710  0.500  1.518743  151.802714  33.242815  0.227262
  7148.903  7148.890  0.500  1.516412  151.797422  33.319229  0.212640
  7150.098  7150.080  0.500  1.514138  151.810778  33.398020  0.202835
  7151.314  7151.300  0.500  1.512019  151.778367  33.461742  0.197563
  7152.547  7152.530  0.500  1.510018  151.762541  33.525267  0.193782
  7153.801  7153.780  0.500  1.508364  151.734459  33.574536  0.192129
  7155.058  7155.050  0.500  1.506920  151.699621  33.615321  0.193926
  7156.355  7156.340  0.500  1.505731  151.733735  33.662911  0.198012
  7157.669  7157.650  0.500  1.504658  151.720801  33.696169  0.201182
  7158.993  7158.980  0.500  1.503683  151.695754  33.723479  0.202542
  7160.339  7160.330  0.500  1.502980  151.673118  33.742162  0.203232
  7161.714  7161.700  0.500  1.502824  151.617090  33.734960  0.204702
  7163.093  7163.080  0.500  1.502615  151.580963  33.733947  0.207987
  7164.502  7164.490  0.500  1.502377  151.538927  33.732617  0.212648
  7165.924  7165.910  0.500  1.502458  151.501720  33.721617  0.216228
  7167.360  7167.350  0.500  1.502229  151.476286  33.723680  0.218778
  7168.820  7168.810  0.500  1.501680  151.426674  33.731140  0.221546
  7170.303  7170.290  0.500  1.500948  151.409373  33.751970  0.225579
  7171.795  7171.790  0.500  1.500281  151.368359  33.765344  0.232482
  7173.327  7173.310  0.500  1.499208  151.328361  33.792658  0.242908
  7174.860  7174.850  0.500  1.498373  151.281358  33.810408  0.256118
  7176.424  7176.410  0.500  1.497682  151.246038  33.825874  0.271502
  7177.991  7177.980  0.500  1.496541  151.234347  33.861861  0.286057
  7179.598  7179.580  0.500  1.495122  151.230227  33.909014  0.296316
  7181.202  7181.190  0.500  1.493810  151.179034  33.942056  0.299193
  7182.843  7182.830  0.500  1.492595  151.171598  33.981636  0.296876
  7184.490  7184.480  0.500  1.491283  151.149191  34.021204  0.290984
  7186.161  7186.150  0.500  1.489882  151.216969  34.084204  0.280328
  7187.849  7187.840  0.500  1.488373  151.610527  34.224495  0.267175
  7189.563  7189.550  0.500  1.486617  151.543453  34.269483  0.253079
  7191.292  7191.280  0.500  1.485029  149.948330  33.962660  0.236050
  7193.050  7193.030  0.500  1.483490  151.207022  34.300483  0.225722
  7194.801  7194.790  0.500  1.481829  151.387836  34.398619  0.221731
  7196.600  7196.580  0.500  1.479983  151.355430  34.454788  0.226758
  7198.392  7198.380  0.500  1.478619  151.317324  34.493136  0.238545
  7200.224  7200.210  0.500  1.476902  151.291822  34.546579  0.255387
  7202.059  7202.050  0.500  1.475002  151.259514  34.604875  0.275765
  7203.920  7203.910  0.500  1.473242  151.201834  34.652632  0.299113
  7205.799  7205.790  0.500  1.471415  151.128445  34.699161  0.321495
  7207.710  7207.690  0.500  1.469677  151.077416  34.747766  0.332510
  7209.620  7209.610  0.500  1.468242  151.015058  34.783317  0.322575
  7211.560  7211.550  0.500  1.466840  150.945915  34.816143  0.290527
  7213.525  7213.510  0.500  1.465371  150.913747  34.859916  0.246374
  7215.500  7215.480  0.500  1.463566  150.833237  34.904264  0.206024
  7217.496  7217.480  0.500  1.461687  150.820851  34.967031  0.176913
  7219.500  7219.490  0.500  1.460160  150.766933  35.007959  0.161099
  7221.536  7221.520  0.500  1.458511  150.719294  35.054629  0.158122
  7223.597  7223.580  0.500  1.456773  150.677502  35.105889  0.168500
  7225.664  7225.650  0.500  1.455125  150.546198  35.133148  0.190150
  7227.755  7227.740  0.500  1.453631  147.908632  34.569227  0.216464
  7229.860  7229.850  0.500  1.451892  150.716968  35.286914  0.256520
  7231.993  7231.980  0.500  1.450187  150.651670  35.331792  0.295966
  7234.132  7234.120  0.500  1.448445  150.560068  35.371863  0.333006
  7236.305  7236.290  0.500  1.446937  150.539697  35.420471  0.360038
  7238.494  7238.480  0.500  1.445532  150.485769  35.457577  0.372593
  7240.697  7240.680  0.500  1.443905  150.458998  35.508978  0.371076
  7242.914  7242.900  0.500  1.442419  150.456809  35.561279  0.358928
  7245.160  7245.150  0.500  1.440966  147.583170  34.932785  0.334583
  7247.423  7247.410  0.500  1.439209  150.194994  35.613510  0.325900
  7249.699  7249.690  0.500  1.437806  150.197277  35.664056  0.319837
  7252.005  7251.990  0.500  1.436124  150.083177  35.696981  0.323310
  7254.326  7254.310  0.500  1.434459  147.717379  35.192798  0.328421
  7256.666  7256.650  0.500  1.432701  150.137427  35.832296  0.341503
  7259.004  7259.000  0.500  1.430801  149.991770  35.865635  0.339162
  7261.394  7261.380  0.500  1.428748  149.531521  35.829056  0.329138
  7263.784  7263.770  0.500  1.427214  138.579616  33.255849  0.297090
  7266.203  7266.190  0.500  1.425080  149.719350  36.005880  0.314682
  7268.639  7268.620  0.500  1.423211  150.340877  36.222989  0.307753
  7271.083  7271.070  0.500  1.421080  150.279437  36.285451  0.293773
  7273.565  7273.550  0.500  1.418975  149.072674  36.069907  0.276878
  7276.049  7276.040  0.500  1.416781  150.306366  36.448291  0.270870
  7278.564  7278.550  0.500  1.414655  150.248286  36.511741  0.266424
  7281.085  7281.070  0.500  1.412853  150.235767  36.574553  0.259408
  7283.637  7283.620  0.500  1.411010  149.145217  36.376059  0.248252
  7286.202  7286.190  0.500  1.408820  149.827130  36.622491  0.241169
  7288.783  7288.770  0.500  1.406876  149.923049  36.717236  0.238203
  7291.391  7291.380  0.500  1.404801  149.895565  36.786736  0.247335
  7294.012  7294.000  0.500  1.402438  149.830720  36.857821  0.269420
  7296.661  7296.650  0.500  1.400404  149.788807  36.922534  0.298208
  7299.318  7299.310  0.500  1.398289  149.670690  36.971552  0.327160
  7302.001  7301.990  0.500  1.396141  147.976977  36.631747  0.349086
  7304.707  7304.690  0.500  1.393926  149.794651  37.163971  0.373575
  7307.419  7307.410  0.500  1.391747  149.707634  37.223372  0.387242
  7310.161  7310.150  0.500  1.389911  149.644528  37.276077  0.392865
  7312.919  7312.900  0.500  1.387990  149.594578  37.335272  0.393534
  7315.699  7315.680  0.500  1.385704  149.507287  37.398903  0.393810
  7318.481  7318.470  0.500  1.383727  149.464103  37.462082  0.396185
  7321.302  7321.290  0.500  1.381426  149.413045  37.535549  0.398712
  7324.141  7324.120  0.500  1.379414  149.349021  37.595031  0.400950
  7326.981  7326.970  0.500  1.377423  149.270285  37.650114  0.402095
  7329.859  7329.850  0.500  1.375333  149.186625  37.707712  0.404790
  7332.757  7332.740  0.500  1.372996  149.118771  37.778759  0.412878
  7335.663  7335.650  0.500  1.370803  149.053931  37.845229  0.423564
  7338.587  7338.570  0.500  1.368584  147.808800  37.612462  0.426116
  7341.534  7341.520  0.500  1.366385  148.856547  37.962476  0.426093
  7344.500  7344.490  0.500  1.363965  148.844394  38.051350  0.411752
  7347.481  7347.470  0.500  1.362095  148.787752  38.108069  0.390225
  7350.498  7350.480  0.500  1.359745  148.720821  38.180545  0.369988
  7353.519  7353.500  0.500  1.357333  148.648754  38.254198  0.353254
  7356.564  7356.550  0.500  1.354880  148.578446  38.330026  0.339002
  7359.621  7359.610  0.500  1.352604  148.494312  38.395606  0.327178
  7362.698  7362.690  0.500  1.350428  148.424368  38.461122  0.318607
  7365.799  7365.790  0.500  1.348245  148.367772  38.530472  0.315907
  7368.926  7368.910  0.500  1.345790  148.290969  38.605159  0.320688
  7372.065  7372.050  0.500  1.343587  148.249708  38.679544  0.334785
  7375.218  7375.200  0.500  1.341079  148.146530  38.749695  0.360530
  7378.393  7378.380  0.500  1.338628  148.054851  38.820747  0.398332
  7381.584  7381.570  0.500  1.336314  147.952716  38.883844  0.441982
  7384.806  7384.790  0.500  1.334002  147.913452  38.963485  0.476536
  7388.033  7388.020  0.500  1.331551  147.835526  39.038536  0.490543
  7391.282  7391.270  0.500  1.329390  147.787902  39.110373  0.488750
  7394.559  7394.550  0.500  1.327072  147.708503  39.180100  0.481237
  7397.848  7397.840  0.500  1.324504  147.645527  39.264085  0.475914
  7401.160  7401.150  0.500  1.322016  147.556354  39.338138  0.476416
  7404.481  7404.470  0.500  1.319157  147.463947  39.426029  0.479120
  7407.833  7407.820  0.500  1.316971  147.350937  39.482067  0.479817
  7411.198  7411.190  0.500  1.314298  147.305380  39.575502  0.479619
  7414.578  7414.570  0.500  1.311748  147.194497  39.646660  0.480057
  7417.992  7417.980  0.500  1.309279  147.058727  39.708028  0.482692
  7421.401  7421.400  0.500  1.307043  146.976780  39.774708  0.489452
  7424.861  7424.850  0.500  1.304499  146.886584  39.851568  0.500654
  7428.319  7428.310  0.500  1.301870  146.831052  39.941388  0.509410
  7431.802  7431.790  0.500  1.299208  146.731766  40.020748  0.511270
  7435.301  7435.290  0.500  1.296681  146.641526  40.097348  0.509588
  7438.819  7438.810  0.500  1.294049  146.508408  40.166502  0.502285
  7442.354  7442.350  0.500  1.291482  146.350259  40.226276  0.489979
  7445.910  7445.900  0.500  1.289080  142.445617  39.247214  0.463518
  7449.483  7449.480  0.500  1.286342  146.280516  40.414318  0.467054
  7453.091  7453.080  0.500  1.283771  144.959254  40.152367  0.460497
  7456.704  7456.690  0.500  1.281268  146.025144  40.548996  0.466096
  7460.333  7460.320  0.500  1.278689  145.445790  40.492406  0.468736
  7463.992  7463.980  0.500  1.276172  145.841586  40.704935  0.478147
  7467.660  7467.650  0.500  1.273562  141.850346  39.694431  0.478933
  7471.345  7471.340  0.500  1.270878  145.772470  40.901599  0.510197
  7475.060  7475.050  0.500  1.268257  145.637114  40.970876  0.527292
  7478.798  7478.780  0.500  1.265720  145.498398  41.035799  0.540784
  7482.533  7482.520  0.500  1.263123  145.367784  41.105588  0.553451
  7486.303  7486.290  0.500  1.260519  145.245239  41.178029  0.569716
  7490.098  7490.080  0.500  1.257733  145.116688  41.256348  0.586607
  7493.897  7493.880  0.500  1.254923  145.005719  41.340822  0.599527
  7497.727  7497.710  0.500  1.252234  144.903620  41.422947  0.604770
  7501.587  7501.550  0.500  1.249473  144.786292  41.503817  0.603410
  7505.431  7505.410  0.500  1.246860  144.634743  41.568872  0.600944
  7509.302  7509.290  0.500  1.244482  144.501629  41.629498  0.601172
  7513.206  7513.190  0.500  1.241914  144.385852  41.703088  0.605041
  7517.101  7517.110  0.500  1.238942  144.256939  41.789875  0.610919
  7521.047  7521.050  0.500  1.236104  144.114387  41.867207  0.615950
  7525.031  7525.010  0.500  1.233267  143.975163  41.945597  0.618693
  7529.004  7528.980  0.500  1.230247  143.838384  42.032506  0.619503
  7532.985  7532.980  0.500  1.227506  143.717853  42.112542  0.620095
  7537.015  7536.990  0.500  1.224872  143.553951  42.175465  0.623540
  7541.029  7541.030  0.500  1.221937  143.414920  42.258477  0.629283
  7545.102  7545.080  0.500  1.219327  143.261130  42.323489  0.634643
  7549.171  7549.150  0.500  1.216377  143.112651  42.404543  0.639387
  7553.241  7553.240  0.500  1.213557  142.971441  42.482307  0.640296
  7557.382  7557.350  0.500  1.210997  142.847460  42.554273  0.636536
  7561.501  7561.480  0.500  1.208337  142.654566  42.610021  0.632549
  7565.656  7565.630  0.500  1.205348  142.511024  42.694571  0.632327
  7569.811  7569.790  0.500  1.202552  142.392189  42.778414  0.638706
  7573.966  7573.980  0.500  1.199512  142.222009  42.857355  0.650781
  7578.201  7578.180  0.500  1.196775  142.043831  42.920971  0.666494
  7582.432  7582.410  0.500  1.193795  141.890956  43.002726  0.683833
  7586.672  7586.650  0.500  1.190919  141.712967  43.072490  0.697178
  7590.902  7590.910  0.500  1.188047  141.525416  43.139188  0.706480
  7595.172  7595.190  0.500  1.185133  141.281731  43.190609  0.711925
  7599.479  7599.490  0.500  1.182388  141.049542  43.238167  0.714954
  7603.833  7603.810  0.500  1.179759  140.478947  43.176590  0.717614
  7608.172  7608.150  0.500  1.176652  140.258663  43.243055  0.725720
  7612.492  7612.510  0.500  1.173857  140.055652  43.301305  0.736295
  7616.915  7616.890  0.500  1.171058  140.482852  43.555137  0.747542
  7621.299  7621.280  0.500  1.167839  140.568701  43.722270  0.752128
  7625.716  7625.700  0.500  1.164890  140.557679  43.847961  0.754519
  7630.148  7630.130  0.500  1.162012  140.463166  43.944738  0.759390
  7634.601  7634.580  0.500  1.159253  140.330595  44.024598  0.768183
  7639.071  7639.050  0.500  1.156315  140.138591  44.093689  0.779486
  7643.556  7643.540  0.500  1.153340  139.958172  44.168128  0.791004
  7648.027  7648.050  0.500  1.150496  139.817648  44.249471  0.801708
  7652.584  7652.580  0.500  1.147565  139.661358  44.329732  0.809031
  7657.151  7657.130  0.500  1.144499  139.462819  44.402625  0.814779
  7661.713  7661.700  0.500  1.141550  139.293404  44.479675  0.819208
  7666.264  7666.280  0.500  1.138913  139.080089  44.528827  0.820386
  7670.878  7670.890  0.500  1.135501  138.912153  44.627067  0.821821
  7675.528  7675.510  0.500  1.132552  138.716067  44.695699  0.822726
  7680.169  7680.160  0.500  1.129888  138.490597  44.742090  0.824088
  7684.825  7684.820  0.500  1.127071  138.209066  44.777086  0.827635
  7689.480  7689.500  0.500  1.124190  138.386400  44.963897  0.837291
  7694.207  7694.200  0.500  1.120861  138.070606  45.010864  0.847560
  7698.906  7698.920  0.500  1.117966  137.842287  45.066716  0.857100
  7703.650  7703.660  0.500  1.114394  137.564582  45.136886  0.866755
  7708.419  7708.410  0.500  1.111420  137.500422  45.250187  0.877738
  7713.185  7713.190  0.500  1.108362  137.248412  45.305580  0.888713
  7718.010  7717.990  0.500  1.105373  137.001343  45.359405  0.899799
  7722.788  7722.800  0.500  1.102650  136.890584  45.446335  0.910759
  7727.616  7727.630  0.500  1.099756  136.653696  45.499175  0.918545
  7732.480  7732.490  0.500  1.096352  136.394474  45.567723  0.925616
  7737.361  7737.360  0.500  1.093473  136.131857  45.611106  0.931815
  7742.248  7742.250  0.500  1.090409  136.225473  45.782543  0.941882
  7747.134  7747.160  0.500  1.087298  135.920165  45.822268  0.949535
  7752.116  7752.090  0.500  1.084443  135.701473  45.879296  0.956265
  7757.015  7757.030  0.500  1.081169  135.507676  45.964018  0.964155
  7761.985  7762.000  0.500  1.078060  135.269354  46.026087  0.973636
  7767.013  7766.990  0.500  1.074886  135.050224  46.097578  0.984669
  7772.006  7771.990  0.500  1.071667  134.841883  46.174880  0.996267
  7777.013  7777.020  0.500  1.068461  134.614347  46.244969  1.006970
  7782.051  7782.060  0.500  1.065435  134.421431  46.318659  1.016211
  7787.108  7787.120  0.500  1.062390  134.191140  46.380321  1.024968
  7792.187  7792.200  0.500  1.059299  134.037024  46.470475  1.033605
  7797.295  7797.300  0.500  1.056528  133.842938  46.531950  1.041600
  7802.430  7802.420  0.500  1.053449  133.602645  46.591616  1.047915
  7807.584  7807.560  0.500  1.049995  133.404546  46.683500  1.054961
  7812.697  7812.720  0.500  1.046903  133.206933  46.758721  1.061919
  7817.910  7817.900  0.500  1.044021  132.976001  46.812357  1.069158
  7823.068  7823.090  0.500  1.041544  132.708529  46.834100  1.076228
  7828.285  7828.310  0.500  1.038502  132.468672  46.891883  1.083923
  7833.544  7833.540  0.500  1.034919  132.229063  46.975075  1.092568
  7838.773  7838.790  0.500  1.031908  131.703829  46.929567  1.098060
  7844.085  7844.060  0.500  1.028485  131.832822  47.136588  1.110797
  7849.331  7849.350  0.500  1.025399  131.553245  47.182018  1.120547
  7854.659  7854.660  0.500  1.022120  130.511905  46.962269  1.123273
  7859.972  7859.990  0.500  1.019147  131.143830  47.330174  1.141025
  7865.341  7865.340  0.500  1.016160  130.902222  47.384286  1.152507
  7870.696  7870.710  0.500  1.012979  130.679859  47.454514  1.164312
  7876.085  7876.090  0.500  1.009953  130.418945  47.503278  1.176050
  7881.482  7881.500  0.500  1.006777  130.176302  47.565722  1.187544
  7886.929  7886.920  0.500  1.003438  129.940883  47.638493  1.198776
  7892.343  7892.370  0.500  1.000177  129.704489  47.707150  1.209754
  7897.819  7897.830  0.500  0.996846  129.407744  47.756817  1.220019
  7903.289  7903.310  0.500  0.993642  129.233611  47.845632  1.231969
  7908.786  7908.810  0.500  0.990132  128.996909  47.925896  1.243348
  7914.302  7914.330  0.500  0.987287  128.719462  47.959090  1.253524
  7919.846  7919.870  0.500  0.984036  128.449691  48.014432  1.263499
  7925.394  7925.420  0.500  0.980662  128.253733  48.103192  1.275491
  7930.976  7931.000  0.500  0.977612  127.844976  48.096343  1.284773
  7936.575  7936.600  0.500  0.974514  127.478723  48.107393  1.292851
  7942.187  7942.210  0.500  0.971650  127.503931  48.254884  1.303468
  7947.829  7947.850  0.500  0.968576  127.176225  48.279052  1.311751
  7953.479  7953.500  0.500  0.965093  126.816770  48.310572  1.321055
  7959.138  7959.170  0.500  0.961804  126.532838  48.361206  1.331143
  7964.843  7964.860  0.500  0.958874  126.184011  48.369380  1.339783
