# XDI/1.0 BlueSky/1.10.0 BMM/2023-1.0-py310-tiled
# Beamline.name: BMM (06BM) -- Beamline for Materials Measurement (NIST)
# Beamline.xray_source: NSLS-II three-pole wiggler
# Beamline.collimation: paraboloid mirror, 5 nm Rh on 30 nm Pt
# Beamline.focusing: not in use
# Beamline.harmonic_rejection: flat mirror, Pt stripe, pitch = 7.0 mrad relative to beam
# Beamline.software: Bluesky 1.10.0, Ophyd 1.7.0, DataBroker 2.0.0b13, Python 3.10.8, 2023-1.0-py310-tiled
# Detector.I0: 10 cm N2
# Detector.I1: 25 cm N2
# Detector.I2: 25 cm N2
# Element.symbol: Bi
# Element.edge: L1
# Element.reference: Bi
# Element.reference_material: BiO2
# Facility.name: NSLS-II
# Facility.energy: 3.0
# Facility.current: 400.0
# Facility.mode: top-off
# Facility.GUP: 301027
# Facility.SAF: 310583
# Facility.cycle: 2023-2
# Mono.name: Si(111)
# Mono.d_spacing: 3.1351860
# Mono.encoder_resolution: 0.0000050 deg/ct
# Mono.angle_offset: 16.0754326 deg
# Mono.scan_mode: pseudo channel cut
# Mono.scan_type: step
# Mono.direction: forward in energy
# Sample.name: BiO2
# Sample.prep: powder on tape
# Sample.x: 109.138 mm
# Sample.y: 153.150 mm
# Sample.SDD_position: 205.000 mm
# Scan.experimenters: Bruce Ravel
# Scan.edge_energy: 16387.5
# Scan.start_time: 2023-05-28T21:57:21
# Scan.end_time: 2023-05-28T22:04:50
# Scan.transient_id: 79050
# Scan.uid: 769aea48-b841-4f16-827e-38f6690f3f51
# Scan.plot_hint: ln(It/Ir)  --  ln($6/$7)
# Column.1: energy eV
# Column.2: requested_energy eV
# Column.3: measurement_time seconds
# Column.4: xmu 
# Column.5: I0 nA
# Column.6: It nA
# Column.7: Ir nA
# ///////////
# Welcome to BMM
# -----------
# energy  requested_energy  measurement_time  xmu  I0  It  Ir
  16187.472  16187.500  0.500  0.986366  20.200597  37.214932  13.878546
  16197.533  16197.500  0.500  0.985092  20.168802  37.169295  13.879200
  16207.492  16207.500  0.500  0.983966  20.128539  37.087196  13.864141
  16217.543  16217.500  0.500  0.982544  20.083857  37.009357  13.854736
  16227.538  16227.500  0.500  0.981085  20.048070  36.948695  13.852221
  16237.557  16237.500  0.500  0.979768  19.964348  36.802713  13.815675
  16247.519  16247.500  0.500  0.978667  19.954672  36.780709  13.822621
  16257.552  16257.500  0.500  0.977395  19.904819  36.703177  13.811034
  16267.562  16267.500  0.500  0.976387  19.870974  36.638825  13.800736
  16277.526  16277.500  0.500  0.975202  19.829568  36.569733  13.791036
  16287.526  16287.500  0.500  0.973912  19.773839  36.469479  13.770987
  16297.503  16297.500  0.500  0.972982  19.737486  36.403493  13.758852
  16307.411  16307.500  0.500  0.971961  19.645861  36.239966  13.711046
  16317.565  16317.500  0.500  0.971026  19.607228  36.170979  13.697744
  16327.474  16327.500  0.500  0.970249  19.609001  36.183348  13.713074
  16337.454  16337.500  0.500  0.970146  19.571208  36.109805  13.686617
  16347.470  16347.500  0.500  0.970497  19.529671  36.039896  13.655329
  16357.439  16357.500  0.500  0.971855  19.482855  35.958845  13.606131
  16359.397  16359.500  0.500  0.972100  19.477771  35.944269  13.597276
  16361.402  16361.500  0.500  0.973001  19.465715  35.927971  13.578868
  16363.396  16363.500  0.500  0.973708  19.462847  35.923803  13.567704
  16365.403  16365.500  0.500  0.974730  19.453143  35.901457  13.545408
  16367.433  16367.500  0.500  0.975935  19.433232  35.873499  13.518558
  16369.440  16369.500  0.500  0.977504  19.422958  35.855033  13.490423
  16371.436  16371.500  0.500  0.979270  19.376549  35.761578  13.431520
  16373.432  16373.500  0.500  0.981900  19.329444  35.679641  13.365543
  16375.441  16375.500  0.500  0.984983  19.352124  35.716512  13.338175
  16377.415  16377.500  0.500  0.989081  19.398972  35.807411  13.317438
  16377.709  16377.800  0.500  0.989856  19.392405  35.799286  13.304091
  16377.991  16378.100  0.500  0.990741  19.379877  35.773292  13.282669
  16378.296  16378.400  0.500  0.991451  19.375195  35.763629  13.269661
  16378.578  16378.700  0.500  0.992318  19.385044  35.781443  13.264765
  16378.896  16379.000  0.500  0.993204  19.378507  35.774150  13.250323
  16379.213  16379.300  0.500  0.994105  19.386173  35.780554  13.240756
  16379.519  16379.600  0.500  0.995281  19.386994  35.783402  13.226243
  16379.824  16379.900  0.500  0.996171  19.390560  35.796653  13.219370
  16380.130  16380.200  0.500  0.997421  19.374821  35.761447  13.189872
  16380.424  16380.500  0.500  0.998575  19.372398  35.758761  13.173678
  16380.706  16380.800  0.500  0.999695  19.369018  35.756876  13.158231
  16381.023  16381.100  0.500  1.000968  19.364533  35.741470  13.135833
  16381.317  16381.400  0.500  1.002400  19.369540  35.750521  13.120354
  16381.635  16381.700  0.500  1.004041  19.358782  35.736696  13.093772
  16381.940  16382.000  0.500  1.005615  19.357477  35.731040  13.071115
  16382.234  16382.300  0.500  1.007118  19.361657  35.741459  13.055295
  16382.517  16382.600  0.500  1.008902  19.354472  35.726627  13.026613
  16382.834  16382.900  0.500  1.010597  19.357096  35.730374  13.005907
  16383.151  16383.200  0.500  1.012588  19.353343  35.726821  12.978759
  16383.457  16383.500  0.500  1.014884  19.349148  35.718550  12.945985
  16383.751  16383.800  0.500  1.017505  19.346619  35.711584  12.909584
  16384.057  16384.100  0.500  1.019604  19.344016  35.714225  12.883463
  16384.351  16384.400  0.500  1.021876  19.345362  35.709745  12.852618
  16384.657  16384.700  0.500  1.024414  19.344565  35.710553  12.820325
  16384.963  16385.000  0.500  1.027123  19.336080  35.693273  12.779459
  16385.268  16385.300  0.500  1.030114  19.342398  35.707213  12.746265
  16385.574  16385.600  0.500  1.033025  19.340749  35.702131  12.707408
  16385.892  16385.900  0.500  1.036186  19.339980  35.706862  12.668991
  16386.174  16386.200  0.500  1.039369  19.340199  35.704521  12.627902
  16386.468  16386.500  0.500  1.042773  19.323975  35.676639  12.575156
  16386.762  16386.800  0.500  1.046178  19.323830  35.677045  12.532549
  16387.080  16387.100  0.500  1.049866  19.370004  35.760357  12.515570
  16387.386  16387.400  0.500  1.053559  19.397016  35.805184  12.485068
  16387.715  16387.700  0.500  1.057698  19.398069  35.809773  12.435102
  16387.998  16388.000  0.500  1.061596  19.390987  35.799220  12.383071
  16388.304  16388.300  0.500  1.065543  19.393232  35.796951  12.333507
  16388.586  16388.600  0.500  1.069496  19.386531  35.785435  12.280899
  16388.892  16388.900  0.500  1.073544  19.385839  35.793705  12.234112
  16389.198  16389.200  0.500  1.077757  19.380530  35.780739  12.178267
  16389.504  16389.500  0.500  1.081457  19.380053  35.778484  12.132524
  16389.786  16389.800  0.500  1.085594  19.385695  35.785804  12.084909
  16390.128  16390.100  0.500  1.089852  19.396139  35.804482  12.039834
  16390.387  16390.400  0.500  1.093216  19.390114  35.798217  11.997304
  16390.669  16390.700  0.500  1.096522  19.376754  35.771825  11.948887
  16390.999  16391.000  0.500  1.100020  19.368030  35.753452  11.901052
  16391.293  16391.300  0.500  1.103122  19.369294  35.756593  11.865235
  16391.599  16391.600  0.500  1.105955  19.363439  35.752101  11.830183
  16391.917  16391.900  0.500  1.108678  19.361224  35.747360  11.796445
  16392.199  16392.200  0.500  1.110938  19.362656  35.752823  11.771614
  16392.494  16392.500  0.500  1.112675  19.361334  35.745092  11.748642
  16392.788  16392.800  0.500  1.114099  19.359397  35.742433  11.731050
  16393.094  16393.100  0.500  1.115059  19.355661  35.734373  11.717158
  16393.400  16393.400  0.500  1.115740  19.358410  35.738326  11.710472
  16393.695  16393.700  0.500  1.116094  19.356228  35.734894  11.705209
  16394.013  16394.000  0.500  1.116244  19.356872  35.739300  11.704887
  16394.307  16394.300  0.500  1.116042  19.355010  35.731403  11.704675
  16394.601  16394.600  0.500  1.115390  19.355215  35.728854  11.711464
  16394.896  16394.900  0.500  1.114684  19.356016  35.740373  11.723517
  16395.214  16395.200  0.500  1.113824  19.356845  35.737517  11.732663
  16395.496  16395.500  0.500  1.112394  19.342501  35.715591  11.742249
  16395.838  16395.800  0.500  1.110777  19.335379  35.700893  11.756414
  16396.121  16396.100  0.500  1.109158  19.332287  35.693943  11.773172
  16396.415  16396.400  0.500  1.107674  19.326684  35.687106  11.788395
  16396.698  16396.700  0.500  1.105917  19.343469  35.714627  11.818233
  16396.992  16397.000  0.500  1.103824  19.327746  35.681770  11.832103
  16397.287  16397.300  0.500  1.102002  19.332826  35.691889  11.857031
  16397.605  16397.600  0.500  1.100119  19.331091  35.694014  11.880087
  16397.888  16397.900  0.500  1.098391  19.334449  35.697212  11.901704
  16398.229  16398.200  0.500  1.096799  19.328268  35.690759  11.918508
  16398.500  16398.500  0.500  1.094627  19.331984  35.685885  11.942793
  16398.783  16398.800  0.500  1.093335  19.336612  35.708851  11.965930
  16399.077  16399.100  0.500  1.091451  19.327991  35.684333  11.980260
  16399.384  16399.400  0.500  1.089971  19.316951  35.667868  11.992469
  16399.690  16399.700  0.500  1.088328  19.315098  35.659525  12.009380
  16399.997  16400.000  0.500  1.086977  19.327173  35.682723  12.033448
  16400.303  16400.300  0.500  1.085517  19.315634  35.662579  12.044226
  16400.586  16400.600  0.500  1.084215  19.310056  35.653187  12.056736
  16400.880  16400.900  0.500  1.083034  19.302477  35.639318  12.066286
  16401.163  16401.200  0.500  1.082090  19.301885  35.642558  12.078786
  16401.481  16401.500  0.500  1.080920  19.294188  35.623450  12.086442
  16401.788  16401.800  0.500  1.079937  19.303208  35.643392  12.105094
  16402.083  16402.100  0.500  1.079067  19.282222  35.602689  12.101802
  16402.413  16402.400  0.500  1.078002  19.279133  35.600457  12.113937
  16402.660  16402.700  0.500  1.077181  19.272450  35.582823  12.117879
  16402.967  16403.000  0.500  1.076609  19.267024  35.578476  12.123333
  16403.273  16403.300  0.500  1.075778  19.270039  35.580895  12.134232
  16403.568  16403.600  0.500  1.075185  19.269991  35.580990  12.141464
  16403.886  16403.900  0.500  1.074534  19.273437  35.582575  12.149913
  16404.216  16404.200  0.500  1.073779  19.268460  35.577720  12.157434
  16404.487  16404.500  0.500  1.073085  19.269274  35.573777  12.164521
  16404.782  16404.800  0.500  1.072736  19.267938  35.581536  12.171424
  16405.089  16405.100  0.500  1.072225  19.277354  35.593962  12.181894
  16405.360  16405.400  0.500  1.071609  19.281797  35.603533  12.192679
  16405.690  16405.700  0.500  1.071256  19.266613  35.577776  12.188166
  16405.985  16406.000  0.500  1.070770  19.269585  35.580226  12.194924
  16406.303  16406.300  0.500  1.070402  19.275340  35.591807  12.203391
  16406.598  16406.600  0.500  1.069991  19.271328  35.582808  12.205311
  16406.893  16406.900  0.500  1.069609  19.265364  35.577391  12.208118
  16407.188  16407.200  0.500  1.069232  19.273204  35.584384  12.215126
  16407.494  16407.500  0.500  1.068850  19.269829  35.581269  12.218720
  16407.813  16407.800  0.500  1.068401  19.268696  35.580673  12.224006
  16408.120  16408.100  0.500  1.068064  19.267569  35.575781  12.226438
  16408.414  16408.400  0.500  1.067690  19.267314  35.578399  12.231913
  16408.698  16408.700  0.500  1.067487  19.273986  35.592069  12.239098
  16408.969  16409.000  0.500  1.066950  19.259108  35.556338  12.233384
  16409.287  16409.300  0.500  1.066872  19.272574  35.589574  12.245775
  16409.594  16409.600  0.500  1.066432  19.276099  35.594695  12.252918
  16409.913  16409.900  0.500  1.066046  19.259253  35.556310  12.244431
  16410.219  16410.200  0.500  1.065738  19.258219  35.560369  12.249603
  16410.526  16410.500  0.500  1.065501  19.257899  35.555027  12.250674
  16410.798  16410.800  0.500  1.065188  19.254408  35.551800  12.253391
  16411.081  16411.100  0.500  1.064820  19.247783  35.538212  12.253218
  16411.411  16411.400  0.500  1.064448  19.247750  35.539862  12.258339
  16411.718  16411.700  0.500  1.064378  19.251842  35.550055  12.262721
  16412.025  16412.000  0.500  1.064111  19.245584  35.545647  12.264468
  16412.308  16412.300  0.500  1.063679  19.245832  35.539174  12.267540
  16412.497  16412.500  0.500  1.063474  19.246228  35.538407  12.269782
  16413.524  16413.490  0.500  1.062851  19.244991  35.536595  12.276807
  16414.503  16414.490  0.500  1.062067  19.236937  35.518545  12.280193
  16415.542  16415.510  0.500  1.061733  19.222816  35.495794  12.276431
  16416.569  16416.560  0.500  1.061577  19.232464  35.517357  12.285803
  16417.644  16417.620  0.500  1.061659  19.217925  35.491351  12.275798
  16418.683  16418.700  0.500  1.061867  19.213095  35.473315  12.267016
  16419.794  16419.800  0.500  1.062624  19.200789  35.456439  12.251900
  16420.916  16420.920  0.500  1.063410  19.192602  35.443156  12.237690
  16422.050  16422.060  0.500  1.064087  19.194543  35.444655  12.229924
  16423.208  16423.210  0.500  1.064956  19.192870  35.447730  12.220361
  16424.390  16424.390  0.500  1.065645  19.179962  35.417543  12.201542
  16425.572  16425.580  0.500  1.066536  19.180550  35.423360  12.192672
  16426.801  16426.800  0.500  1.067201  19.173339  35.408462  12.179444
  16428.043  16428.030  0.500  1.067921  19.165753  35.397864  12.167041
  16429.296  16429.280  0.500  1.068485  19.167454  35.399011  12.160574
  16430.585  16430.550  0.500  1.068688  19.161741  35.390650  12.155232
  16431.875  16431.840  0.500  1.069037  19.153358  35.373919  12.145245
  16433.176  16433.150  0.500  1.069003  19.146453  35.364748  12.142506
  16434.466  16434.480  0.500  1.069159  19.141742  35.351047  12.135916
  16435.839  16435.830  0.500  1.069190  19.131250  35.335314  12.130131
  16437.188  16437.200  0.500  1.069280  19.129805  35.336224  12.129352
  16438.573  16438.580  0.500  1.069078  19.113020  35.303762  12.120665
  16439.994  16439.990  0.500  1.068785  19.087508  35.254838  12.107415
  16441.427  16441.410  0.500  1.069009  19.089443  35.257122  12.105488
  16442.849  16442.850  0.500  1.068813  19.076923  35.231083  12.098916
  16444.329  16444.310  0.500  1.068791  19.052260  35.195345  12.086912
  16445.799  16445.790  0.500  1.068621  19.061025  35.209452  12.093806
  16447.292  16447.290  0.500  1.068441  19.076074  35.239422  12.106282
  16448.845  16448.810  0.500  1.068017  19.072388  35.224495  12.106279
  16450.374  16450.350  0.500  1.067645  19.075634  35.237700  12.115333
  16451.951  16451.910  0.500  1.067295  19.078419  35.239003  12.120016
  16453.505  16453.480  0.500  1.066740  19.055165  35.198228  12.112718
  16455.094  16455.080  0.500  1.066001  19.049391  35.187291  12.117900
  16456.661  16456.690  0.500  1.065370  19.049129  35.188182  12.125863
  16458.346  16458.330  0.500  1.064491  19.026768  35.150348  12.123475
  16459.984  16459.980  0.500  1.063714  19.014438  35.127568  12.125035
  16461.681  16461.650  0.500  1.062750  19.008250  35.115488  12.132551
  16463.368  16463.340  0.500  1.061992  19.025984  35.149512  12.153521
  16465.102  16465.050  0.500  1.061439  18.998440  35.098360  12.142540
  16466.812  16466.780  0.500  1.060848  18.991592  35.088224  12.146210
  16468.559  16468.530  0.500  1.060455  18.989626  35.082324  12.148952
  16470.294  16470.290  0.500  1.060017  19.000281  35.103524  12.161619
  16472.089  16472.080  0.500  1.059723  18.975763  35.060366  12.150233
  16473.849  16473.880  0.500  1.059496  18.970625  35.056044  12.151491
  16475.680  16475.710  0.500  1.059227  18.969617  35.049708  12.152563
  16477.547  16477.550  0.500  1.058970  18.951245  35.015034  12.143667
  16479.392  16479.410  0.500  1.058832  18.940542  34.994396  12.138183
  16481.331  16481.290  0.500  1.058613  18.932612  34.982239  12.136624
  16483.236  16483.190  0.500  1.058295  18.927184  34.970219  12.136313
  16485.141  16485.110  0.500  1.058256  18.917410  34.957034  12.132213
  16487.046  16487.050  0.500  1.058104  18.912794  34.947329  12.130687
  16489.024  16489.010  0.500  1.057982  18.903055  34.934035  12.127549
  16490.977  16490.980  0.500  1.057973  18.903068  34.929859  12.126202
  16492.980  16492.980  0.500  1.057889  18.883506  34.894156  12.114831
  16495.018  16494.990  0.500  1.057664  18.868166  34.868749  12.108736
  16497.033  16497.020  0.500  1.057257  18.876681  34.882352  12.118388
  16499.096  16499.080  0.500  1.057150  18.856736  34.844235  12.106444
  16501.172  16501.150  0.500  1.056875  18.849077  34.832787  12.105790
  16503.260  16503.240  0.500  1.056789  18.831769  34.802559  12.096333
  16505.384  16505.350  0.500  1.056539  18.823894  34.789888  12.094952
  16507.474  16507.480  0.500  1.056241  18.829734  34.800662  12.102301
  16509.623  16509.620  0.500  1.056099  18.812135  34.767732  12.092560
  16511.809  16511.790  0.500  1.055900  18.805378  34.756012  12.090888
  16513.948  16513.980  0.500  1.055423  18.791309  34.731891  12.088262
  16516.170  16516.180  0.500  1.054998  18.785250  34.724867  12.090955
  16518.442  16518.400  0.500  1.054873  18.774705  34.710301  12.087401
  16520.666  16520.650  0.500  1.054470  18.772921  34.701063  12.089055
  16522.926  16522.910  0.500  1.054133  18.753629  34.668582  12.081809
  16525.223  16525.190  0.500  1.053481  18.747383  34.654883  12.084916
  16527.485  16527.490  0.500  1.053051  18.739104  34.642193  12.085687
  16529.796  16529.810  0.500  1.052611  18.731735  34.628003  12.086046
  16532.166  16532.150  0.500  1.052036  18.714450  34.591463  12.080237
  16534.490  16534.500  0.500  1.051588  18.701213  34.574934  12.079881
  16536.922  16536.880  0.500  1.050944  18.698544  34.568259  12.085324
  16539.283  16539.270  0.500  1.050590  18.683545  34.540961  12.080062
  16541.741  16541.690  0.500  1.050048  18.675832  34.531155  12.083171
  16544.139  16544.120  0.500  1.049815  18.671976  34.523318  12.083244
  16546.562  16546.570  0.500  1.049268  18.634538  34.449338  12.063957
  16549.046  16549.050  0.500  1.048838  18.623634  34.431199  12.062779
  16551.542  16551.540  0.500  1.048338  18.637725  34.460672  12.079154
  16554.063  16554.050  0.500  1.047937  18.653369  34.493580  12.095535
  16556.597  16556.570  0.500  1.047554  18.649367  34.485744  12.097420
  16559.156  16559.120  0.500  1.047018  18.643435  34.475162  12.100189
  16561.716  16561.690  0.500  1.046510  18.625536  34.445504  12.095923
  16564.252  16564.270  0.500  1.046032  18.625296  34.446560  12.102073
  16566.886  16566.880  0.500  1.045654  18.611272  34.419963  12.097306
  16569.508  16569.500  0.500  1.045077  18.599427  34.392460  12.094616
  16572.179  16572.150  0.500  1.044763  18.594478  34.384670  12.095678
  16574.827  16574.810  0.500  1.044305  18.584863  34.371346  12.096522
  16577.500  16577.490  0.500  1.043842  18.581987  34.365878  12.100199
  16580.222  16580.190  0.500  1.043589  18.559635  34.326151  12.089272
  16582.897  16582.910  0.500  1.043204  18.542926  34.298322  12.084119
  16585.644  16585.650  0.500  1.042930  18.535865  34.284698  12.082629
  16588.405  16588.400  0.500  1.042718  18.523320  34.262437  12.077348
  16591.203  16591.180  0.500  1.042531  18.502880  34.224903  12.066370
  16594.002  16593.970  0.500  1.041991  18.492174  34.203277  12.065262
  16596.826  16596.790  0.500  1.041826  18.489096  34.202517  12.066990
  16599.615  16599.620  0.500  1.041529  18.482882  34.191423  12.066659
  16602.477  16602.470  0.500  1.041201  18.470826  34.169000  12.062694
  16605.352  16605.350  0.500  1.040914  18.450755  34.136310  12.054611
  16608.240  16608.240  0.500  1.040513  18.442105  34.121089  12.054068
  16611.166  16611.150  0.500  1.039712  18.424083  34.085234  12.051055
  16614.117  16614.070  0.500  1.039451  18.416345  34.072103  12.049560
  16617.045  16617.020  0.500  1.039161  18.392417  34.027321  12.037216
  16619.985  16619.990  0.500  1.038150  18.389804  34.019266  12.046534
  16622.951  16622.970  0.500  1.037758  18.381942  34.006796  12.046838
  16625.991  16625.980  0.500  1.037104  18.362730  33.971793  12.042308
  16629.044  16629.000  0.500  1.036557  18.356000  33.960894  12.045038
  16632.099  16632.050  0.500  1.036184  18.341033  33.939500  12.041942
  16635.154  16635.110  0.500  1.035769  18.337383  33.938007  12.046403
  16638.210  16638.190  0.500  1.035206  18.315231  33.895344  12.038045
  16641.268  16641.290  0.500  1.034686  18.300824  33.865301  12.033623
  16644.424  16644.410  0.500  1.034452  18.293653  33.853431  12.032228
  16647.569  16647.550  0.500  1.033967  18.278830  33.829798  12.029654
  16650.727  16650.700  0.500  1.033418  18.261468  33.792557  12.023008
  16653.923  16653.880  0.500  1.033076  18.246969  33.769716  12.018994
  16657.084  16657.070  0.500  1.032382  18.241781  33.760582  12.024092
  16660.294  16660.290  0.500  1.032033  18.221491  33.725481  12.015784
  16663.567  16663.520  0.500  1.031331  18.207786  33.699005  12.014772
  16666.792  16666.770  0.500  1.030894  18.189835  33.666574  12.008466
  16670.055  16670.050  0.500  1.030248  18.172140  33.635236  12.005033
  16673.356  16673.340  0.500  1.029537  18.158959  33.611525  12.005107
  16676.634  16676.650  0.500  1.029084  18.145755  33.591760  12.003484
  16679.974  16679.970  0.500  1.028653  18.132630  33.568226  12.000240
  16683.340  16683.320  0.500  1.028010  18.116251  33.538442  11.997305
  16686.707  16686.690  0.500  1.027479  18.106377  33.517792  11.996286
  16690.100  16690.070  0.500  1.026814  18.079778  33.470411  11.987300
  16693.494  16693.480  0.500  1.026469  18.062111  33.436755  11.979376
  16696.902  16696.900  0.500  1.026050  18.045862  33.408716  11.974349
  16700.385  16700.350  0.500  1.025659  18.018666  33.363290  11.962750
  16703.832  16703.810  0.500  1.025264  17.988387  33.307837  11.947574
  16707.293  16707.290  0.500  1.024738  17.937104  33.216551  11.921100
  16710.793  16710.790  0.500  1.024298  17.849155  33.049703  11.866441
  16714.306  16714.310  0.500  1.023691  17.331367  32.097718  11.531630
  16717.869  16717.850  0.500  1.023350  15.316866  28.363583  10.193559
  16721.446  16721.400  0.500  1.022789  17.844229  33.046139  11.883084
  16725.025  16724.980  0.500  1.022180  17.998166  33.331833  11.993114
  16728.593  16728.580  0.500  1.021502  17.988781  33.313651  11.994706
  16732.163  16732.190  0.500  1.020969  17.963099  33.268770  11.984926
  16735.832  16735.820  0.500  1.020260  17.943395  33.231482  11.979991
  16739.528  16739.480  0.500  1.019762  17.923139  33.199509  11.974420
  16743.201  16743.150  0.500  1.019202  17.904974  33.167635  11.969626
  16746.826  16746.840  0.500  1.018692  17.884665  33.130776  11.962430
  16750.563  16750.550  0.500  1.017928  17.867157  33.095344  11.958771
  16754.314  16754.280  0.500  1.017401  17.859196  33.084297  11.961081
  16758.092  16758.020  0.500  1.016822  17.839520  33.046839  11.954457
  16761.822  16761.790  0.500  1.016284  17.820965  33.016847  11.950033
  16765.603  16765.580  0.500  1.015751  17.806888  32.990687  11.946930
  16769.373  16769.380  0.500  1.015129  17.794456  32.969511  11.946686
  16773.244  16773.210  0.500  1.014623  17.769180  32.922647  11.935740
  16777.104  16777.050  0.500  1.014081  17.750687  32.893404  11.931604
  16780.942  16780.910  0.500  1.013365  17.742338  32.872571  11.932597
  16784.793  16784.790  0.500  1.012865  17.716829  32.828057  11.922398
  16788.721  16788.690  0.500  1.012083  17.693169  32.781934  11.914958
  16792.625  16792.610  0.500  1.011562  17.675956  32.754832  11.911306
  16796.606  16796.550  0.500  1.011072  17.650938  32.711995  11.901566
  16800.526  16800.510  0.500  1.010516  17.625986  32.664417  11.890867
  16804.473  16804.480  0.500  1.009817  17.433882  32.307008  11.768983
  16808.521  16808.480  0.500  1.009430  17.572354  32.569672  11.869251
  16812.497  16812.490  0.500  1.008611  17.566888  32.555296  11.873737
  16816.586  16816.530  0.500  1.007880  17.546813  32.522626  11.870502
  16820.578  16820.580  0.500  1.007348  17.493071  32.424579  11.841009
  16824.671  16824.650  0.500  1.006776  17.431255  32.314166  11.807443
  16828.779  16828.740  0.500  1.006128  17.315609  32.099070  11.736442
  16832.889  16832.850  0.500  1.005579  16.824671  31.195759  11.412432
  16837.013  16836.980  0.500  1.005282  14.784527  27.406957  10.029339
  16841.101  16841.130  0.500  1.004256  17.556873  32.548188  11.922958
  16845.329  16845.290  0.500  1.003779  17.614247  32.656099  11.968191
  16849.509  16849.480  0.500  1.003104  17.565701  32.566188  11.943304
  16853.728  16853.680  0.500  1.002494  17.520222  32.488736  11.922162
  16857.912  16857.910  0.500  1.001978  17.492220  32.432994  11.907856
  16862.173  16862.150  0.500  1.001205  17.437743  32.334866  11.881004
  16866.449  16866.410  0.500  1.000577  17.276660  32.033822  11.777782
  16870.739  16870.690  0.500  0.999830  17.431107  32.325618  11.893953
  16874.994  16874.990  0.500  0.999337  17.379448  32.224986  11.862772
  16879.326  16879.310  0.500  0.998749  17.394917  32.258606  11.882139
  16883.673  16883.650  0.500  0.998152  17.366836  32.209924  11.871283
  16888.060  16888.010  0.500  0.997531  17.343658  32.168539  11.863396
  16892.411  16892.390  0.500  0.996637  17.333026  32.146141  11.865737
  16896.777  16896.780  0.500  0.996045  17.299112  32.086086  11.850583
  16901.233  16901.200  0.500  0.995636  17.277038  32.043805  11.839810
  16905.667  16905.630  0.500  0.994823  17.255104  32.002298  11.834100
  16910.115  16910.080  0.500  0.994150  17.226245  31.952889  11.823782
  16914.566  16914.550  0.500  0.993612  17.182717  31.877951  11.802396
  16919.069  16919.040  0.500  0.992898  17.152396  31.817085  11.788274
  16923.625  16923.550  0.500  0.992351  16.969897  31.481958  11.670487
  16928.108  16928.080  0.500  0.991510  17.141848  31.806552  11.800745
  16932.631  16932.630  0.500  0.991120  17.109395  31.743050  11.781769
  16937.206  16937.200  0.500  0.990517  17.057422  31.648423  11.753742
  16941.810  16941.780  0.500  0.989778  16.969748  31.488164  11.702868
  16946.441  16946.390  0.500  0.988854  16.684832  30.958108  11.516501
  16951.024  16951.010  0.500  0.988318  14.566755  27.033458  10.061914
  16955.660  16955.660  0.500  0.987514  17.027881  31.600567  11.771262
  16960.375  16960.320  0.500  0.986831  17.170993  31.868074  11.879024
  16965.016  16965.000  0.500  0.986351  17.129257  31.788405  11.855012
  16969.685  16969.700  0.500  0.985458  17.096570  31.728268  11.843155
  16974.433  16974.420  0.500  0.984976  17.060949  31.671477  11.827651
  16979.195  16979.160  0.500  0.984225  17.028465  31.609017  11.813204
  16983.936  16983.910  0.500  0.983531  16.791788  31.164498  11.655154
  16988.729  16988.690  0.500  0.982788  16.993584  31.545370  11.806368
  16993.500  16993.490  0.500  0.982124  16.969631  31.499278  11.796940
  16998.375  16998.300  0.500  0.981425  16.948190  31.463649  11.791847
  17003.164  17003.130  0.500  0.980853  16.925211  31.420115  11.782264
  17007.994  17007.990  0.500  0.980087  16.900087  31.379579  11.776076
  17012.902  17012.860  0.500  0.979475  16.881221  31.342136  11.769228
  17017.801  17017.750  0.500  0.978677  16.856809  31.298214  11.762118
  17022.715  17022.660  0.500  0.977982  16.833369  31.252644  11.753160
  17027.620  17027.590  0.500  0.977389  16.809700  31.213458  11.745390
  17032.527  17032.530  0.500  0.976726  16.786496  31.178763  11.740107
  17037.539  17037.500  0.500  0.975968  16.766407  31.137893  11.733616
  17042.516  17042.490  0.500  0.975121  16.747413  31.096605  11.727977
  17047.508  17047.490  0.500  0.974453  16.720229  31.051565  11.718825
  17052.529  17052.520  0.500  0.973879  16.695167  31.004485  11.707775
  17057.617  17057.560  0.500  0.973055  16.657601  30.941405  11.693588
  17062.682  17062.620  0.500  0.972208  16.616184  30.861613  11.673313
  17067.712  17067.700  0.500  0.971480  16.518332  30.682868  11.614152
  17072.796  17072.800  0.500  0.970521  15.583571  28.943732  10.966362
  17077.973  17077.920  0.500  0.970424  15.924483  29.577316  11.207509
  17083.101  17083.060  0.500  0.969542  16.658109  30.949281  11.737718
  17088.245  17088.220  0.500  0.968535  16.629118  30.891408  11.727572
  17093.419  17093.400  0.500  0.968000  16.596092  30.837069  11.713211
  17098.659  17098.590  0.500  0.967251  16.570505  30.787561  11.703174
  17103.864  17103.810  0.500  0.966751  16.548095  30.745356  11.692974
  17109.047  17109.040  0.500  0.965838  16.529727  30.715694  11.692362
  17114.335  17114.290  0.500  0.965083  16.502079  30.664255  11.681594
  17119.640  17119.560  0.500  0.964275  16.478110  30.624385  11.675837
  17124.922  17124.850  0.500  0.963656  16.459402  30.590498  11.670144
  17130.169  17130.160  0.500  0.962817  16.431853  30.536697  11.659398
  17135.510  17135.490  0.500  0.962078  16.412982  30.506471  11.656460
  17140.944  17140.840  0.500  0.961286  16.386567  30.460969  11.648296
  17146.291  17146.210  0.500  0.960458  16.368336  30.421831  11.642972
  17151.654  17151.590  0.500  0.959914  16.339166  30.370627  11.629699
  17157.047  17157.000  0.500  0.959117  16.324541  30.346390  11.629680
  17162.520  17162.420  0.500  0.958403  16.302411  30.308396  11.623419
  17167.984  17167.870  0.500  0.957592  16.285363  30.272803  11.619187
  17173.491  17173.330  0.500  0.956692  16.270321  30.246050  11.619367
  17178.780  17178.810  0.500  0.956106  16.240938  30.199011  11.608105
  17184.281  17184.310  0.500  0.955117  16.224396  30.168691  11.607925
  17189.824  17189.830  0.500  0.954426  16.263299  30.236671  11.642116
  17195.383  17195.370  0.500  0.953849  16.242299  30.207044  11.637421
  17200.933  17200.920  0.500  0.953088  16.226661  30.171940  11.632753
  17206.500  17206.500  0.500  0.952259  16.207791  30.137596  11.629146
  17212.070  17212.100  0.500  0.951656  16.176409  30.085347  11.615982
  17217.722  17217.710  0.500  0.950862  16.161166  30.056522  11.614073
  17223.377  17223.350  0.500  0.950031  16.141231  30.017804  11.608753
  17228.984  17229.000  0.500  0.949239  16.119134  29.984764  11.605161
  17234.634  17234.670  0.500  0.948556  16.088409  29.922432  11.588951
  17240.366  17240.360  0.500  0.947617  16.074516  29.899370  11.590900
