# XDI/1.0 BlueSky/1.10.0 BMM/2023-1.0-py310-tiled
# Beamline.name: BMM (06BM) -- Beamline for Materials Measurement (NIST)
# Beamline.xray_source: NSLS-II three-pole wiggler
# Beamline.collimation: paraboloid mirror, 5 nm Rh on 30 nm Pt
# Beamline.focusing: not in use
# Beamline.harmonic_rejection: flat mirror, Pt stripe, pitch = 7.0 mrad relative to beam
# Beamline.software: Bluesky 1.10.0, Ophyd 1.7.0, DataBroker 2.0.0b13, Python 3.10.8, 2023-1.0-py310-tiled
# Detector.I0: 10 cm N2
# Detector.I1: 25 cm N2
# Detector.I2: 25 cm N2
# Element.symbol: Tm
# Element.edge: L3
# Element.reference: Tm
# Element.reference_material: Tm2O3
# Facility.name: NSLS-II
# Facility.energy: 3.0
# Facility.current: 399.8
# Facility.mode: top-off
# Facility.GUP: 301027
# Facility.SAF: 310583
# Facility.cycle: 2023-2
# Mono.name: Si(111)
# Mono.d_spacing: 3.1351860
# Mono.encoder_resolution: 0.0000050 deg/ct
# Mono.angle_offset: 16.0754326 deg
# Mono.scan_mode: pseudo channel cut
# Mono.scan_type: step
# Mono.direction: forward in energy
# Sample.name: Tm2O3
# Sample.prep: PEG pellet
# Sample.x: 109.138 mm
# Sample.y: 153.150 mm
# Sample.SDD_position: 205.000 mm
# Scan.experimenters: Bruce Ravel
# Scan.edge_energy: 8648.0
# Scan.start_time: 2023-05-28T15:27:34
# Scan.end_time: 2023-05-28T15:35:25
# Scan.transient_id: 78798
# Scan.uid: e37d4afe-9b5a-4170-81b1-206b9feb7c5a
# Scan.plot_hint: ln(It/Ir)  --  ln($6/$7)
# Column.1: energy eV
# Column.2: requested_energy eV
# Column.3: measurement_time seconds
# Column.4: xmu 
# Column.5: I0 nA
# Column.6: It nA
# Column.7: Ir nA
# ///////////
# sample courtesy Martin Stennett, University of Sheffield
# -----------
# energy  requested_energy  measurement_time  xmu  I0  It  Ir
  8448.010  8448.000  0.500  1.100523  129.828826  169.135248  56.270813
  8458.026  8458.000  0.500  1.096676  129.666446  169.156128  56.494642
  8468.049  8468.000  0.500  1.093116  129.505061  169.193402  56.708621
  8478.062  8478.000  0.500  1.089489  129.310755  169.183683  56.911436
  8488.088  8488.000  0.500  1.085991  129.135952  169.254557  57.134742
  8498.048  8498.000  0.500  1.082394  128.940799  169.215045  57.327286
  8508.044  8508.000  0.500  1.078794  128.756581  169.204596  57.530450
  8518.024  8518.000  0.500  1.075194  128.568077  169.193158  57.734040
  8528.025  8528.000  0.500  1.071800  127.946271  168.631595  57.738069
  8538.050  8538.000  0.500  1.067903  128.075495  169.034260  58.101918
  8548.021  8548.000  0.500  1.064422  127.989304  169.149263  58.344172
  8558.026  8558.000  0.500  1.061129  127.823822  169.159629  58.540207
  8568.029  8568.000  0.500  1.057685  127.623190  169.139749  58.735292
  8578.025  8578.000  0.500  1.054440  127.367780  169.033662  58.889218
  8588.017  8588.000  0.500  1.051107  126.876710  168.610050  58.937758
  8598.019  8598.000  0.500  1.048617  126.798371  168.722236  59.124008
  8608.017  8608.000  0.500  1.046077  126.365774  168.347781  59.142789
  8618.218  8618.000  0.500  1.033580  96.671807  128.970908  45.878986
  8619.970  8620.000  0.500  1.045323  123.132027  164.334770  57.776541
  8621.965  8622.000  0.500  1.041296  127.772744  170.593059  60.218832
  8623.968  8624.000  0.500  1.041525  127.591807  170.383479  60.131076
  8625.978  8626.000  0.500  1.041999  127.390420  170.141087  60.017083
  8627.976  8628.000  0.500  1.042690  127.209530  169.936176  59.903369
  8630.033  8630.000  0.500  1.043567  127.044975  169.794145  59.800837
  8631.998  8632.000  0.500  1.045220  126.933859  169.695649  59.667433
  8633.996  8634.000  0.500  1.047232  127.177297  170.059138  59.675059
  8635.998  8636.000  0.500  1.050744  127.079060  169.980014  59.438167
  8637.995  8638.000  0.500  1.056014  126.908142  169.811801  59.067288
  8638.274  8638.300  0.500  1.056968  126.871714  169.752152  58.990192
  8638.572  8638.600  0.500  1.058096  126.830244  169.691174  58.902536
  8638.870  8638.900  0.500  1.059521  126.788876  169.611385  58.790999
  8639.175  8639.200  0.500  1.060781  126.738883  169.563086  58.700281
  8639.473  8639.500  0.500  1.062208  126.667470  169.494571  58.592888
  8639.777  8639.800  0.500  1.063876  126.592169  169.410255  58.466130
  8640.072  8640.100  0.500  1.065663  126.514061  169.312087  58.327895
  8640.377  8640.400  0.500  1.067483  126.407920  169.174250  58.174455
  8640.679  8640.700  0.500  1.069698  126.270622  169.006496  57.988197
  8640.980  8641.000  0.500  1.072009  126.107663  168.795984  57.782269
  8641.288  8641.300  0.500  1.074605  125.866947  168.477282  57.523640
  8641.583  8641.600  0.500  1.077116  125.525387  168.028363  57.226508
  8641.888  8641.900  0.500  1.079768  125.001092  167.339504  56.840942
  8642.180  8642.200  0.500  1.081995  124.119570  166.145980  56.310001
  8642.495  8642.500  0.500  1.083811  122.508969  164.012069  55.485892
  8642.787  8642.800  0.500  1.085088  120.036175  160.697147  54.295094
  8643.095  8643.100  0.500  1.086245  116.578854  156.092488  52.678304
  8643.390  8643.400  0.500  1.088466  113.278138  151.656794  51.067792
  8643.692  8643.700  0.500  1.092803  110.983757  148.567884  49.811160
  8643.990  8644.000  0.500  1.098002  110.595243  148.082497  49.390954
  8644.292  8644.300  0.500  1.103280  111.963775  149.922551  49.741452
  8644.587  8644.600  0.500  1.108464  114.635913  153.503097  50.666061
  8644.889  8644.900  0.500  1.113440  117.952988  157.933799  51.869776
  8645.188  8645.200  0.500  1.118375  121.137350  162.214333  53.013340
  8645.480  8645.500  0.500  1.123136  123.431318  165.300466  53.765339
  8645.788  8645.800  0.500  1.128580  124.848280  167.207214  54.090241
  8646.087  8646.100  0.500  1.134758  125.562897  168.178913  54.069514
  8646.389  8646.400  0.500  1.142838  125.995951  168.762049  53.820340
  8646.688  8646.700  0.500  1.151692  126.229648  169.066998  53.442325
  8646.996  8647.000  0.500  1.162659  126.389740  169.294844  52.930653
  8647.288  8647.300  0.500  1.174469  126.502368  169.455149  52.358736
  8647.600  8647.600  0.500  1.188891  126.564681  169.541123  51.635258
  8647.896  8647.900  0.500  1.204854  126.613943  169.616757  50.840200
  8648.198  8648.200  0.500  1.223294  126.622408  169.635417  49.916813
  8648.497  8648.500  0.500  1.244327  126.656414  169.693269  48.894550
  8648.799  8648.800  0.500  1.267825  126.678515  169.724523  47.767817
  8649.094  8649.100  0.500  1.293288  126.684868  169.744871  46.572441
  8649.400  8649.400  0.500  1.321602  126.688018  169.756197  45.275291
  8649.699  8649.700  0.500  1.350827  126.686312  169.757628  43.971616
  8649.998  8650.000  0.500  1.382914  126.701470  169.780967  42.588974
  8650.300  8650.300  0.500  1.417378  126.698808  169.788319  41.147951
  8650.596  8650.600  0.500  1.451945  126.687791  169.795562  39.751586
  8650.891  8650.900  0.500  1.485585  126.681760  169.784981  38.434209
  8651.184  8651.200  0.500  1.518537  126.693485  169.805905  37.192954
  8651.496  8651.500  0.500  1.549019  126.679289  169.808805  36.076948
  8651.792  8651.800  0.500  1.574273  126.678030  169.802498  35.175953
  8652.088  8652.100  0.500  1.594824  126.656432  169.781229  34.456134
  8652.387  8652.400  0.500  1.611327  126.659096  169.794320  33.894764
  8652.702  8652.700  0.500  1.624616  126.656891  169.768195  33.442170
  8652.995  8653.000  0.500  1.634330  126.634795  169.740952  33.113566
  8653.294  8653.300  0.500  1.642731  126.638018  169.780643  32.844225
  8653.590  8653.600  0.500  1.649421  126.628922  169.778258  32.624768
  8653.902  8653.900  0.500  1.654639  126.615423  169.754125  32.450372
  8654.205  8654.200  0.500  1.658059  126.603835  169.751101  32.339011
  8654.501  8654.500  0.500  1.658911  126.598728  169.742789  32.309883
  8654.803  8654.800  0.500  1.656921  126.596259  169.752483  32.376083
  8655.103  8655.100  0.500  1.651574  126.591660  169.768313  32.552695
  8655.405  8655.400  0.500  1.642380  126.587579  169.774216  32.854524
  8655.705  8655.700  0.500  1.629878  126.566947  169.750016  33.263094
  8656.007  8656.000  0.500  1.614196  126.563200  169.729646  33.784791
  8656.300  8656.300  0.500  1.596465  126.554826  169.703931  34.383967
  8656.603  8656.600  0.500  1.575467  126.547532  169.745415  35.122191
  8656.893  8656.900  0.500  1.553681  126.526581  169.696040  35.885295
  8657.205  8657.200  0.500  1.529112  126.520505  169.704539  36.779717
  8657.492  8657.500  0.500  1.506170  126.521650  169.698544  37.631964
  8657.804  8657.800  0.500  1.482011  126.500386  169.714259  38.555754
  8658.091  8658.100  0.500  1.460167  126.493634  169.676876  39.398559
  8658.393  8658.400  0.500  1.438719  126.478649  169.668104  40.250618
  8658.693  8658.700  0.500  1.420156  126.478635  169.690975  41.010276
  8658.996  8659.000  0.500  1.402699  126.459167  169.666662  41.726495
  8659.295  8659.300  0.500  1.387432  126.470289  169.678878  42.371495
  8659.602  8659.600  0.500  1.373590  126.454286  169.663746  42.958240
  8659.901  8659.900  0.500  1.361318  126.452147  169.654516  43.486317
  8660.198  8660.200  0.500  1.350428  126.427608  169.637101  43.957953
  8660.507  8660.500  0.500  1.340798  126.427519  169.652267  44.387283
  8660.800  8660.800  0.500  1.332605  126.414157  169.651906  44.752351
  8661.110  8661.100  0.500  1.325034  126.405255  169.650575  45.092110
  8661.400  8661.400  0.500  1.318380  126.401187  169.630552  45.387792
  8661.713  8661.700  0.500  1.312212  126.390337  169.638077  45.670600
  8662.003  8662.000  0.500  1.306950  126.373224  169.613207  45.904821
  8662.303  8662.300  0.500  1.302245  126.368216  169.587619  46.114359
  8662.602  8662.600  0.500  1.297871  126.354377  169.564761  46.310264
  8662.909  8662.900  0.500  1.294126  126.364171  169.594291  46.492147
  8663.199  8663.200  0.500  1.290206  126.334748  169.595144  46.674966
  8663.496  8663.500  0.500  1.286805  126.325837  169.591945  46.833102
  8663.796  8663.800  0.500  1.284026  126.332414  169.599308  46.965450
  8664.096  8664.100  0.500  1.281352  126.330736  169.604639  47.092714
  8664.396  8664.400  0.500  1.278909  126.326198  169.566137  47.197159
  8664.686  8664.700  0.500  1.276478  126.294884  169.535651  47.303560
  8664.996  8665.000  0.500  1.274680  126.292715  169.537694  47.389220
  8665.299  8665.300  0.500  1.273030  126.290455  169.566169  47.475490
  8665.605  8665.600  0.500  1.271714  126.287464  169.551901  47.533972
  8665.893  8665.900  0.500  1.270606  126.281671  169.559372  47.588807
  8666.202  8666.200  0.500  1.269595  126.265565  169.553124  47.635146
  8666.503  8666.500  0.500  1.268719  126.253223  169.540576  47.673366
  8666.806  8666.800  0.500  1.268204  126.250604  169.545808  47.699397
  8667.100  8667.100  0.500  1.267751  126.236775  169.515258  47.712422
  8667.410  8667.400  0.500  1.267828  126.222690  169.511548  47.707721
  8667.700  8667.700  0.500  1.268125  126.226655  169.520063  47.695955
  8668.007  8668.000  0.500  1.268691  126.215714  169.541223  47.674896
  8668.304  8668.300  0.500  1.269224  126.207422  169.528358  47.645883
  8668.607  8668.600  0.500  1.270189  126.200092  169.538859  47.602853
  8668.901  8668.900  0.500  1.271093  126.196013  169.526215  47.556327
  8669.205  8669.200  0.500  1.271943  126.186609  169.518571  47.513784
  8669.499  8669.500  0.500  1.272689  126.165306  169.486459  47.469341
  8669.799  8669.800  0.500  1.273783  126.176671  169.515491  47.425583
  8670.099  8670.100  0.500  1.274385  126.152435  169.497407  47.391967
  8670.390  8670.400  0.500  1.275128  126.154837  169.503701  47.358541
  8670.697  8670.700  0.500  1.275647  126.153765  169.515189  47.337162
  8670.994  8671.000  0.500  1.275838  126.127731  169.481438  47.318675
  8671.291  8671.300  0.500  1.275974  126.113344  169.461046  47.306549
  8671.595  8671.600  0.500  1.275906  126.108211  169.440657  47.304073
  8671.902  8671.900  0.500  1.275832  126.097018  169.437118  47.306590
  8672.190  8672.200  0.500  1.275540  126.092707  169.438682  47.320877
  8672.507  8672.500  0.500  1.275231  126.099538  169.471382  47.344627
  8672.801  8672.800  0.500  1.274303  126.056061  169.400426  47.368710
  8673.011  8673.000  0.500  1.274034  126.072276  169.433167  47.390644
  8674.006  8673.990  0.500  1.271029  126.056731  169.445059  47.536579
  8674.999  8674.990  0.500  1.267422  126.030008  169.447689  47.709110
  8676.021  8676.010  0.500  1.264213  126.007374  169.428579  47.857039
  8677.063  8677.060  0.500  1.262530  125.975950  169.423835  47.936342
  8678.137  8678.120  0.500  1.263165  125.950102  169.411785  47.902470
  8679.218  8679.200  0.500  1.266294  125.926335  169.400129  47.749553
  8680.316  8680.300  0.500  1.271323  125.901748  169.394456  47.508427
  8681.423  8681.420  0.500  1.277404  125.880190  169.386833  47.218272
  8682.570  8682.560  0.500  1.283616  125.846366  169.345936  46.914547
  8683.727  8683.710  0.500  1.290126  125.807597  169.296842  46.596626
  8684.900  8684.890  0.500  1.297601  125.782829  169.311160  46.253489
  8686.080  8686.080  0.500  1.305800  125.758061  169.304254  45.873933
  8687.312  8687.300  0.500  1.314479  125.714433  169.275325  45.469749
  8688.542  8688.530  0.500  1.321908  125.682273  169.269531  45.131673
  8689.798  8689.780  0.500  1.327071  125.652088  169.254068  44.895145
  8691.057  8691.050  0.500  1.329153  125.637753  169.271509  44.806379
  8692.352  8692.340  0.500  1.327436  125.601203  169.242535  44.875698
  8693.668  8693.650  0.500  1.322880  125.565482  169.221458  45.075023
  8694.993  8694.980  0.500  1.317032  125.541400  169.219359  45.338813
  8696.335  8696.330  0.500  1.309906  125.490033  169.177098  45.651643
  8697.707  8697.700  0.500  1.303131  125.449622  169.155827  45.956238
  8699.092  8699.080  0.500  1.297021  125.396859  169.109181  46.225133
  8700.494  8700.490  0.500  1.292066  125.319951  169.059152  46.441010
  8701.913  8701.910  0.500  1.288566  125.239772  168.976304  46.580983
  8703.362  8703.350  0.500  1.285053  125.093446  168.802842  46.696921
  8704.827  8704.810  0.500  1.282045  124.818990  168.471179  46.745599
  8706.290  8706.290  0.500  1.278630  123.724458  167.031340  46.504601
  8707.798  8707.790  0.500  1.271412  112.098366  151.348399  42.443453
  8709.327  8709.310  0.500  1.276795  115.844871  156.415088  43.628845
  8710.863  8710.850  0.500  1.270874  124.366500  167.944110  47.122803
  8712.422  8712.410  0.500  1.269343  124.968902  168.797683  47.434905
  8713.989  8713.980  0.500  1.267766  125.070347  168.976571  47.560090
  8715.595  8715.580  0.500  1.266640  125.094549  169.048617  47.633996
  8717.201  8717.190  0.500  1.265644  125.082188  169.070717  47.687688
  8718.838  8718.830  0.500  1.265110  125.057560  169.069399  47.712757
  8720.498  8720.480  0.500  1.265093  125.026075  169.050611  47.708271
  8722.153  8722.150  0.500  1.265293  124.989198  169.061008  47.701679
  8723.844  8723.840  0.500  1.266278  124.962112  169.045834  47.650421
  8725.571  8725.550  0.500  1.267812  124.935436  169.037380  47.575045
  8727.283  8727.280  0.500  1.269718  124.891656  169.017769  47.478939
  8729.039  8729.030  0.500  1.271818  124.853381  169.006147  47.376058
  8730.811  8730.790  0.500  1.273883  125.194159  169.497615  47.415838
  8732.591  8732.580  0.500  1.275843  125.167203  169.501928  47.324181
  8734.391  8734.380  0.500  1.277622  125.145449  169.522079  47.245670
  8736.228  8736.210  0.500  1.278585  125.099014  169.506923  47.195967
  8738.059  8738.050  0.500  1.279234  125.059019  169.503894  47.164501
  8739.927  8739.910  0.500  1.279378  125.020690  169.499527  47.156498
  8741.809  8741.790  0.500  1.279238  124.998487  169.488317  47.159978
  8743.695  8743.690  0.500  1.278555  124.952506  169.438307  47.178305
  8745.618  8745.610  0.500  1.277931  124.905975  169.417313  47.201913
  8747.556  8747.550  0.500  1.277180  124.847554  169.387065  47.228938
  8749.504  8749.510  0.500  1.276997  124.826103  169.413650  47.244974
  8751.492  8751.480  0.500  1.276548  124.784148  169.423805  47.269026
  8753.481  8753.480  0.500  1.275895  124.723965  169.385263  47.289156
  8755.498  8755.490  0.500  1.274869  124.666929  169.330263  47.322327
  8757.532  8757.520  0.500  1.273810  124.626760  169.345618  47.376778
  8759.583  8759.580  0.500  1.272882  124.592827  169.329654  47.416261
  8761.652  8761.650  0.500  1.271856  124.537830  169.275844  47.449838
  8763.739  8763.740  0.500  1.271040  124.481204  169.264167  47.485340
  8765.863  8765.850  0.500  1.270222  124.433765  169.241484  47.517802
  8767.991  8767.980  0.500  1.269525  124.385980  169.225276  47.546374
  8770.130  8770.120  0.500  1.268530  124.342539  169.219359  47.592054
  8772.297  8772.290  0.500  1.267162  124.304270  169.214126  47.655750
  8774.478  8774.480  0.500  1.265025  124.249354  169.194839  47.752261
  8776.690  8776.680  0.500  1.262140  124.185764  169.152267  47.878135
  8778.913  8778.900  0.500  1.259552  124.164040  169.149447  48.001416
  8781.161  8781.150  0.500  1.256188  124.079436  169.065145  48.139184
  8783.426  8783.410  0.500  1.253493  124.039084  169.047939  48.264167
  8785.702  8785.690  0.500  1.251104  123.986787  169.074235  48.387136
  8788.003  8787.990  0.500  1.249420  123.924802  169.016910  48.452245
  8790.312  8790.310  0.500  1.249046  123.871325  169.003333  48.466500
  8792.672  8792.650  0.500  1.249772  123.814900  168.983657  48.425662
  8795.003  8795.000  0.500  1.250346  123.728054  168.911291  48.377150
  8797.395  8797.380  0.500  1.251403  123.695586  168.882728  48.317882
  8799.759  8799.770  0.500  1.251629  123.620307  168.821611  48.289489
  8802.201  8802.190  0.500  1.252231  123.601677  168.867614  48.273571
  8804.621  8804.620  0.500  1.252197  123.521259  168.803719  48.256947
  8807.082  8807.070  0.500  1.252834  123.482426  168.794042  48.223443
  8809.561  8809.550  0.500  1.253795  123.428195  168.783757  48.174183
  8812.058  8812.040  0.500  1.254978  123.374597  168.749019  48.107314
  8814.554  8814.550  0.500  1.256075  123.310408  168.698403  48.040176
  8817.081  8817.070  0.500  1.256719  123.258543  168.678585  48.003611
  8819.629  8819.620  0.500  1.256698  123.208067  168.678479  48.004579
  8822.203  8822.190  0.500  1.255530  123.152550  168.666131  48.057150
  8824.771  8824.770  0.500  1.253111  123.085219  168.633027  48.164087
  8827.392  8827.380  0.500  1.250312  123.027660  168.622153  48.295971
  8830.017  8830.000  0.500  1.247059  122.953545  168.573625  48.439408
  8832.667  8832.650  0.500  1.244706  122.914318  168.570357  48.552557
  8835.332  8835.310  0.500  1.242592  122.842964  168.518139  48.640239
  8838.003  8837.990  0.500  1.241143  122.790089  168.505121  48.707013
  8840.705  8840.690  0.500  1.240016  122.721806  168.465173  48.750360
  8843.422  8843.410  0.500  1.239658  122.675778  168.452908  48.764267
  8846.162  8846.150  0.500  1.239669  122.615267  168.414802  48.752715
  8848.913  8848.900  0.500  1.239258  122.543245  168.352985  48.754876
  8851.696  8851.680  0.500  1.239126  122.491506  168.343165  48.758469
  8854.481  8854.470  0.500  1.238936  122.443299  168.337553  48.766105
  8857.308  8857.290  0.500  1.238470  122.358872  168.305790  48.779596
  8860.131  8860.120  0.500  1.238289  122.296502  168.262953  48.776017
  8862.986  8862.970  0.500  1.237607  122.216002  168.217145  48.796030
  8865.866  8865.850  0.500  1.236764  122.154483  168.162904  48.821439
  8868.762  8868.740  0.500  1.235340  122.094021  168.148612  48.886839
  8871.669  8871.650  0.500  1.233348  122.020271  168.120462  48.976139
  8874.586  8874.570  0.500  1.231252  121.953898  168.090350  49.070101
  8877.542  8877.520  0.500  1.229155  121.879074  168.039713  49.158288
  8880.510  8880.490  0.500  1.227419  121.808859  168.005580  49.233695
  8883.504  8883.470  0.500  1.225919  121.721996  167.953213  49.292215
  8886.496  8886.480  0.500  1.225079  121.681630  167.960149  49.335693
  8889.518  8889.500  0.500  1.224358  121.603291  167.913142  49.357475
  8892.572  8892.550  0.500  1.223869  121.537426  167.880550  49.372012
  8895.643  8895.610  0.500  1.223333  121.446134  167.827435  49.382835
  8898.702  8898.690  0.500  1.223145  121.372975  167.742997  49.367274
  8901.803  8901.790  0.500  1.222870  121.290324  167.690532  49.365441
  8904.928  8904.910  0.500  1.222348  121.198932  167.651876  49.379800
  8908.069  8908.050  0.500  1.222013  121.084817  167.586721  49.377167
  8911.211  8911.200  0.500  1.221165  118.777732  164.427266  48.487381
  8914.401  8914.380  0.500  1.220963  120.999391  167.573017  49.425006
  8917.586  8917.570  0.500  1.219692  119.934712  166.155356  49.069179
  8920.821  8920.790  0.500  1.219511  120.897598  167.534581  49.485432
  8924.038  8924.020  0.500  1.217411  118.578041  164.372706  48.653607
  8927.289  8927.270  0.500  1.217185  120.762527  167.491173  49.587817
  8930.569  8930.550  0.500  1.215969  120.343415  166.953890  49.488936
  8933.859  8933.840  0.500  1.214571  120.678433  167.483013  49.715229
  8937.168  8937.150  0.500  1.213139  120.327153  167.053043  49.658645
  8940.483  8940.470  0.500  1.211421  120.464347  167.345715  49.831187
  8943.835  8943.820  0.500  1.209800  120.397528  167.297866  49.897754
  8947.214  8947.190  0.500  1.207823  120.287505  167.224930  49.974705
  8950.596  8950.570  0.500  1.206412  120.222229  167.198953  50.037468
  8953.987  8953.980  0.500  1.205145  120.062462  167.023470  50.048351
  8957.415  8957.400  0.500  1.204106  120.018578  167.046362  50.107245
  8960.860  8960.850  0.500  1.203304  119.953577  167.019913  50.139493
  8964.335  8964.310  0.500  1.202830  119.891926  166.987729  50.153585
  8967.806  8967.790  0.500  1.202063  119.776902  166.902330  50.166412
  8971.304  8971.290  0.500  1.201182  119.707692  166.851159  50.195216
  8974.826  8974.810  0.500  1.200378  119.617536  166.805558  50.221875
  8978.378  8978.350  0.500  1.199010  119.519522  166.737277  50.270023
  8981.916  8981.900  0.500  1.197498  119.292680  166.471974  50.265985
  8985.501  8985.480  0.500  1.195848  119.283840  166.506556  50.359479
  8989.101  8989.080  0.500  1.194498  119.197124  166.457797  50.412731
  8992.710  8992.690  0.500  1.193241  118.976889  166.233616  50.408166
  8996.343  8996.320  0.500  1.192164  119.044348  166.405028  50.514537
  8999.999  8999.980  0.500  1.190796  118.898901  166.285065  50.547219
  9003.666  9003.650  0.500  1.188682  116.639955  163.174249  49.706535
  9007.364  9007.340  0.500  1.189050  118.768785  166.209732  50.612592
  9011.069  9011.050  0.500  1.186734  116.944976  163.713273  49.968003
  9014.797  9014.780  0.500  1.187004  118.607799  166.106492  50.684728
  9018.540  9018.520  0.500  1.185559  118.438008  165.954039  50.711459
  9022.310  9022.290  0.500  1.184991  118.050660  165.480497  50.595465
  9026.108  9026.080  0.500  1.183031  118.402681  166.049514  50.869057
  9029.902  9029.880  0.500  1.181870  118.293360  165.981764  50.907397
  9033.731  9033.710  0.500  1.180859  118.198726  165.923169  50.940875
  9037.570  9037.550  0.500  1.179912  118.094457  165.858120  50.969156
  9041.423  9041.410  0.500  1.178493  117.349726  164.865070  50.735909
  9045.315  9045.290  0.500  1.177889  117.857235  165.644633  51.006611
  9049.200  9049.190  0.500  1.176817  117.783285  165.623007  51.054675
  9053.141  9053.110  0.500  1.175656  117.683659  165.554392  51.092825
  9057.068  9057.050  0.500  1.174250  117.586783  165.507328  51.150168
  9061.023  9061.010  0.500  1.172652  117.466627  165.404673  51.200183
  9065.007  9064.980  0.500  1.172414  116.934424  164.724263  51.001708
  9069.001  9068.980  0.500  1.170028  117.242444  165.216159  51.276209
  9073.009  9072.990  0.500  1.168738  117.182450  165.206949  51.339521
  9077.043  9077.030  0.500  1.167280  117.080556  165.154052  51.397965
  9081.105  9081.080  0.500  1.165400  116.543460  164.454710  51.276618
  9085.170  9085.150  0.500  1.164108  116.791517  164.874501  51.473962
  9089.265  9089.240  0.500  1.162736  116.742773  164.881436  51.546811
  9093.374  9093.350  0.500  1.160999  116.641366  164.815957  51.615934
  9097.504  9097.480  0.500  1.159422  116.547216  164.751754  51.677238
  9101.649  9101.630  0.500  1.158004  116.431376  164.665126  51.723389
  9105.808  9105.790  0.500  1.156805  116.170819  164.348667  51.685898
  9110.008  9109.980  0.500  1.155576  116.200009  164.460997  51.784841
  9114.200  9114.180  0.500  1.154922  116.126751  164.419631  51.805687
  9118.425  9118.410  0.500  1.153926  116.007619  164.343861  51.833413
  9122.676  9122.650  0.500  1.153096  115.903362  164.271728  51.853689
  9126.930  9126.910  0.500  1.152137  115.797058  164.207498  51.883161
  9131.207  9131.190  0.500  1.150904  115.669973  164.115451  51.918025
  9135.509  9135.490  0.500  1.149520  115.550205  164.006463  51.955424
  9139.834  9139.810  0.500  1.147983  115.391004  163.854194  51.987029
  9144.170  9144.150  0.500  1.145924  113.907132  161.808913  51.443886
  9148.528  9148.510  0.500  1.145011  115.367529  163.955939  52.174137
  9152.916  9152.890  0.500  1.143181  115.139891  163.717018  52.193530
  9157.304  9157.280  0.500  1.140724  113.634447  161.669007  51.667377
  9161.726  9161.700  0.500  1.140139  114.964972  163.623909  52.322782
  9166.144  9166.130  0.500  1.138759  114.759042  163.397227  52.322409
  9170.596  9170.580  0.500  1.137476  114.729131  163.411090  52.394077
  9175.075  9175.050  0.500  1.135794  114.655034  163.412956  52.482861
  9179.558  9179.540  0.500  1.134351  114.433328  163.164215  52.478620
  9184.056  9184.050  0.500  1.133511  114.210398  162.927715  52.446594
  9188.599  9188.580  0.500  1.131110  114.384156  163.269154  52.682871
  9193.153  9193.130  0.500  1.129866  114.225675  163.113792  52.698226
  9197.716  9197.700  0.500  1.128720  114.070225  162.966748  52.711104
  9202.298  9202.280  0.500  1.127686  113.910145  162.825305  52.719860
  9206.911  9206.890  0.500  1.126966  113.806942  162.743820  52.731417
  9211.528  9211.510  0.500  1.126051  113.691632  162.658483  52.752013
  9216.164  9216.160  0.500  1.124778  113.559273  162.524010  52.775528
  9220.839  9220.820  0.500  1.123286  113.437262  162.425886  52.822437
  9225.514  9225.500  0.500  1.121667  113.319755  162.326597  52.875679
  9230.220  9230.200  0.500  1.119928  113.199531  162.247882  52.942025
  9234.935  9234.920  0.500  1.117977  113.083535  162.159254  53.016444
  9239.680  9239.660  0.500  1.116068  112.963766  162.054162  53.083296
  9244.427  9244.410  0.500  1.114014  112.838715  161.945478  53.156759
  9249.208  9249.190  0.500  1.112231  112.729045  161.871060  53.227189
  9254.002  9253.990  0.500  1.110554  112.750710  161.978249  53.351802
  9258.819  9258.800  0.500  1.108781  112.824122  162.186484  53.515206
  9263.641  9263.630  0.500  1.107731  112.764722  162.180216  53.569359
  9268.495  9268.490  0.500  1.106032  112.614022  162.034966  53.612395
  9273.379  9273.360  0.500  1.104735  112.480817  161.914257  53.641984
  9278.273  9278.250  0.500  1.103716  112.439460  161.911296  53.695675
  9283.176  9283.160  0.500  1.102539  112.281646  161.802352  53.722737
  9288.117  9288.090  0.500  1.101303  112.121413  161.636274  53.733974
  9293.049  9293.030  0.500  1.099466  111.181411  160.356636  53.406620
  9298.020  9298.000  0.500  1.098616  111.760501  161.256542  53.751968
  9303.011  9302.990  0.500  1.097446  111.864845  161.514443  53.900978
  9308.011  9307.990  0.500  1.096579  111.389231  160.896727  53.741404
  9313.043  9313.020  0.500  1.094701  111.559818  161.232832  53.954905
  9318.077  9318.060  0.500  1.093231  111.437454  161.132606  54.000669
  9323.135  9323.120  0.500  1.091292  111.210681  160.878720  54.020222
  9328.229  9328.200  0.500  1.089438  111.200362  160.949964  54.144445
  9333.317  9333.300  0.500  1.087398  111.046767  160.804818  54.206070
  9338.434  9338.420  0.500  1.085407  110.875801  160.632091  54.255774
  9343.575  9343.560  0.500  1.083877  110.779360  160.584584  54.322799
  9348.752  9348.720  0.500  1.082314  110.648212  160.481548  54.372828
  9353.927  9353.900  0.500  1.080614  110.496171  160.349116  54.420401
  9359.109  9359.090  0.500  1.079192  110.375801  160.238660  54.460296
  9364.334  9364.310  0.500  1.077699  110.248400  160.133652  54.505921
  9369.565  9369.540  0.500  1.076038  110.086011  159.990762  54.547841
  9374.824  9374.790  0.500  1.074674  109.958763  159.882802  54.585455
  9380.086  9380.060  0.500  1.073207  109.799811  159.711725  54.607103
  9385.373  9385.350  0.500  1.071921  109.664581  159.580097  54.632302
  9390.723  9390.660  0.500  1.070698  109.540844  159.478794  54.664439
  9396.057  9395.990  0.500  1.069168  109.382246  159.336527  54.699260
  9401.381  9401.340  0.500  1.067730  109.255524  159.241413  54.745283
  9406.743  9406.710  0.500  1.066383  109.169397  159.202734  54.805782
  9412.125  9412.090  0.500  1.064550  109.006556  159.041859  54.850854
  9417.526  9417.500  0.500  1.062602  108.850554  158.885287  54.903702
  9422.956  9422.920  0.500  1.060870  108.740116  158.809616  54.972647
  9428.423  9428.370  0.500  1.058993  108.577009  158.642675  55.018069
  9433.892  9433.830  0.500  1.057526  108.446003  158.530464  55.059829
  9439.342  9439.310  0.500  1.055744  108.252488  158.341075  55.092158
  9444.836  9444.810  0.500  1.053980  108.147635  158.279912  55.168091
  9450.390  9450.330  0.500  1.052397  108.021032  158.192882  55.225124
  9455.956  9455.870  0.500  1.050497  107.839339  157.989805  55.259136
  9461.481  9461.420  0.500  1.049050  107.704436  157.866034  55.295806
  9467.037  9467.000  0.500  1.047289  107.542653  157.711174  55.338915
  9472.668  9472.600  0.500  1.045851  107.410772  157.594455  55.377509
  9478.229  9478.210  0.500  1.044379  107.278546  157.484126  55.420265
  9483.851  9483.850  0.500  1.042893  107.110360  157.323335  55.446006
  9489.578  9489.500  0.500  1.041490  106.984521  157.200249  55.480454
  9495.245  9495.170  0.500  1.039801  106.804518  157.026921  55.512920
  9500.856  9500.860  0.500  1.038222  106.670359  156.899813  55.555641
