# XDI/1.0 BlueSky/1.10.0 BMM/2023-1.0-py310-tiled
# Beamline.name: BMM (06BM) -- Beamline for Materials Measurement (NIST)
# Beamline.xray_source: NSLS-II three-pole wiggler
# Beamline.collimation: paraboloid mirror, 5 nm Rh on 30 nm Pt
# Beamline.focusing: not in use
# Beamline.harmonic_rejection: flat mirror, Pt stripe, pitch = 7.0 mrad relative to beam
# Beamline.software: Bluesky 1.10.0, Ophyd 1.7.0, DataBroker 2.0.0b13, Python 3.10.8, 2023-1.0-py310-tiled
# Detector.I0: 10 cm N2
# Detector.I1: 25 cm N2
# Detector.I2: 25 cm N2
# Element.symbol: As
# Element.edge: K
# Element.reference: As
# Element.reference_material: As2O3
# Facility.name: NSLS-II
# Facility.energy: 3.0
# Facility.current: 400.2
# Facility.mode: top-off
# Facility.GUP: 301027
# Facility.SAF: 310583
# Facility.cycle: 2023-2
# Mono.name: Si(111)
# Mono.d_spacing: 3.1351860
# Mono.encoder_resolution: 0.0000050 deg/ct
# Mono.angle_offset: 16.0754326 deg
# Mono.scan_mode: pseudo channel cut
# Mono.scan_type: step
# Mono.direction: forward in energy
# Sample.name: C2H7AsO2
# Sample.prep: powder in PEG pellet
# Sample.x: 115.008 mm
# Sample.y: 114.461 mm
# Sample.SDD_position: 170.000 mm
# Scan.experimenters: Bruce Ravel
# Scan.edge_energy: 11866.7
# Scan.start_time: 2023-07-10T16:53:48
# Scan.end_time: 2023-07-10T17:01:41
# Scan.transient_id: 90301
# Scan.uid: d8b30e46-0f08-461c-a012-15ef953595df
# Scan.plot_hint: ln(I0/It)  --  ln($5/$6)
# Column.1: energy eV
# Column.2: requested_energy eV
# Column.3: measurement_time seconds
# Column.4: xmu 
# Column.5: I0 nA
# Column.6: It nA
# Column.7: Ir nA
# ///////////
# sample courtesy Evan Jahrman, NIST
# -----------
# energy  requested_energy  measurement_time  xmu  I0  It  Ir
  11666.684  11666.700  0.500  0.086209  65.073224  59.698365  40.558328
  11676.733  11676.700  0.500  0.084436  64.974927  59.713959  40.602454
  11686.753  11686.700  0.500  0.082575  64.842933  59.703651  40.637737
  11696.736  11696.700  0.500  0.080690  64.727825  59.710115  40.675005
  11706.743  11706.700  0.500  0.078901  64.589330  59.689020  40.697800
  11716.743  11716.700  0.500  0.077133  64.476129  59.689832  40.731242
  11726.749  11726.700  0.500  0.075382  64.320950  59.650577  40.744763
  11736.772  11736.700  0.500  0.073613  64.038069  59.493377  40.667684
  11746.716  11746.700  0.500  0.071886  63.822169  59.395244  40.637690
  11756.732  11756.700  0.500  0.070147  63.799839  59.477822  40.724894
  11766.747  11766.700  0.500  0.068417  63.768785  59.551821  40.803964
  11776.743  11776.700  0.500  0.066752  63.444361  59.347600  40.692193
  11786.750  11786.700  0.500  0.065267  63.520708  59.507281  40.829641
  11796.774  11796.700  0.500  0.063724  63.370166  59.457950  40.817041
  11806.689  11806.700  0.500  0.062399  63.006771  59.195369  40.655166
  11816.711  11816.700  0.500  0.061322  63.070206  59.318824  40.749947
  11826.714  11826.700  0.500  0.060380  62.932558  59.245147  40.679351
  11836.704  11836.700  0.500  0.060308  62.814463  59.138190  40.559143
  11838.668  11838.700  0.500  0.060484  62.797986  59.112273  40.522996
  11840.668  11840.700  0.500  0.060602  62.761868  59.071351  40.472001
  11842.664  11842.700  0.500  0.060935  62.749657  59.040152  40.422791
  11844.666  11844.700  0.500  0.061373  62.732567  58.998218  40.363186
  11846.656  11846.700  0.500  0.061796  62.701931  58.944494  40.278815
  11848.660  11848.700  0.500  0.062525  62.480914  58.693900  40.057421
  11850.664  11850.700  0.500  0.063620  62.631869  58.771339  40.047526
  11852.663  11852.700  0.500  0.064843  62.611519  58.680448  39.900835
  11854.656  11854.700  0.500  0.066480  62.554849  58.531432  39.685146
  11856.668  11856.700  0.500  0.068681  62.382612  58.241957  39.338420
  11856.944  11857.000  0.500  0.069147  62.413998  58.244064  39.314234
  11857.249  11857.300  0.500  0.069550  62.455309  58.259160  39.294213
  11857.561  11857.600  0.500  0.069922  62.478083  58.258720  39.265779
  11857.855  11857.900  0.500  0.070450  62.501455  58.249770  39.231321
  11858.149  11858.200  0.500  0.070989  62.514580  58.230616  39.185505
  11858.467  11858.500  0.500  0.071534  62.488763  58.174807  39.109637
  11858.749  11858.800  0.500  0.072074  62.438906  58.097023  39.027278
  11859.055  11859.100  0.500  0.072593  62.357890  57.991569  38.915518
  11859.361  11859.400  0.500  0.073274  62.281266  57.880866  38.796909
  11859.660  11859.700  0.500  0.073893  62.220581  57.788668  38.693535
  11859.960  11860.000  0.500  0.074705  62.163478  57.688773  38.577637
  11860.260  11860.300  0.500  0.075429  62.148354  57.633018  38.494501
  11860.566  11860.600  0.500  0.076204  62.152339  57.592059  38.407056
  11860.848  11860.900  0.500  0.077034  62.189460  57.578623  38.346092
  11861.160  11861.200  0.500  0.077884  62.241845  57.578196  38.286208
  11861.460  11861.500  0.500  0.078784  62.301099  57.581134  38.222001
  11861.760  11861.800  0.500  0.079787  62.335780  57.555429  38.144288
  11862.066  11862.100  0.500  0.080841  62.337663  57.496520  38.028938
  11862.366  11862.400  0.500  0.081945  62.305438  57.403382  37.892088
  11862.691  11862.700  0.500  0.083228  62.261822  57.289650  37.733727
  11862.979  11863.000  0.500  0.084393  62.238735  57.201733  37.593233
  11863.291  11863.300  0.500  0.085722  62.227881  57.115806  37.438253
  11863.579  11863.600  0.500  0.087207  62.246054  57.047714  37.296458
  11863.885  11863.900  0.500  0.088797  62.286253  56.993881  37.147613
  11864.185  11864.200  0.500  0.090562  62.332877  56.935978  36.987197
  11864.498  11864.500  0.500  0.092370  62.362125  56.859797  36.806635
  11864.792  11864.800  0.500  0.094358  62.387778  56.770213  36.608809
  11865.092  11865.100  0.500  0.096610  62.401330  56.654802  36.374359
  11865.398  11865.400  0.500  0.099043  62.404971  56.520421  36.110397
  11865.692  11865.700  0.500  0.101653  62.405256  56.373331  35.827081
  11865.987  11866.000  0.500  0.104445  62.397778  56.209458  35.512445
  11866.287  11866.300  0.500  0.107653  62.390579  56.022940  35.161120
  11866.581  11866.600  0.500  0.111222  62.387341  55.820454  34.780457
  11866.887  11866.900  0.500  0.114967  62.378979  55.604344  34.355519
  11867.163  11867.200  0.500  0.119040  62.388111  55.386414  33.923697
  11867.494  11867.500  0.500  0.124268  62.378895  55.089517  33.353260
  11867.776  11867.800  0.500  0.129262  62.369717  54.807013  32.811346
  11868.089  11868.100  0.500  0.135491  62.374872  54.471139  32.153215
  11868.377  11868.400  0.500  0.142112  62.352584  54.092369  31.444168
  11868.689  11868.700  0.500  0.150132  62.349735  53.657838  30.625377
  11868.984  11869.000  0.500  0.158937  62.358448  53.194874  29.738374
  11869.290  11869.300  0.500  0.169126  62.337550  52.637998  28.738498
  11869.609  11869.600  0.500  0.181832  62.320214  51.958968  27.547736
  11869.897  11869.900  0.500  0.195548  62.321482  51.252188  26.351014
  11870.204  11870.200  0.500  0.212954  62.292021  50.343998  24.924242
  11870.504  11870.500  0.500  0.233913  62.244960  49.262551  23.381764
  11870.798  11870.800  0.500  0.258802  62.193300  48.011727  21.770680
  11871.099  11871.100  0.500  0.290460  62.155781  46.487535  20.043070
  11871.393  11871.400  0.500  0.329253  62.129225  44.699547  18.303639
  11871.712  11871.700  0.500  0.382594  62.141680  42.386221  16.418954
  11872.000  11872.000  0.500  0.443121  62.164106  39.911187  14.752923
  11872.289  11872.300  0.500  0.521592  62.211499  36.927162  13.076864
  11872.595  11872.600  0.500  0.620819  62.243183  33.455956  11.434310
  11872.890  11872.900  0.500  0.735032  62.272671  29.859120  9.959385
  11873.197  11873.200  0.500  0.878489  62.286993  25.874646  8.499154
  11873.479  11873.500  0.500  1.033511  62.289178  22.159723  7.247215
  11873.792  11873.800  0.500  1.200800  62.289424  18.746202  6.158365
  11874.092  11874.100  0.500  1.367544  62.289402  15.867094  5.274920
  11874.393  11874.400  0.500  1.514103  62.287781  13.703656  4.629928
  11874.706  11874.700  0.500  1.634368  62.278969  12.149113  4.182509
  11874.988  11875.000  0.500  1.701227  62.274929  11.362648  3.976422
  11875.301  11875.300  0.500  1.723093  62.271870  11.116350  3.945113
  11875.602  11875.600  0.500  1.700618  62.263818  11.367543  4.079147
  11875.909  11875.900  0.500  1.644437  62.271624  12.025977  4.352213
  11876.210  11876.200  0.500  1.565112  62.259038  13.016157  4.752358
  11876.498  11876.500  0.500  1.480306  62.240791  14.164008  5.220958
  11876.823  11876.800  0.500  1.383367  62.240437  15.605720  5.820270
  11877.100  11877.100  0.500  1.300079  62.233050  16.959143  6.403513
  11877.407  11877.400  0.500  1.219185  62.226863  18.386222  7.042366
  11877.707  11877.700  0.500  1.147428  62.219617  19.751746  7.683984
  11877.996  11878.000  0.500  1.087777  62.212870  20.963544  8.280909
  11878.297  11878.300  0.500  1.036935  62.212821  22.056918  8.847307
  11878.579  11878.600  0.500  0.996712  62.200152  22.957512  9.341111
  11878.905  11878.900  0.500  0.961821  62.194872  23.770645  9.814077
  11879.181  11879.200  0.500  0.938429  62.190587  24.331566  10.163144
  11879.482  11879.500  0.500  0.921607  62.182381  24.741080  10.441258
  11879.789  11879.800  0.500  0.911109  62.389277  25.085362  10.677174
  11880.090  11880.100  0.500  0.906495  62.394816  25.203620  10.794869
  11880.397  11880.400  0.500  0.905945  62.393259  25.216840  10.844003
  11880.686  11880.700  0.500  0.908205  62.373558  25.151969  10.832920
  11881.011  11881.000  0.500  0.912234  62.370984  25.049808  10.780037
  11881.294  11881.300  0.500  0.916500  62.360705  24.939071  10.698051
  11881.607  11881.600  0.500  0.921196  62.351822  24.818687  10.585176
  11881.896  11881.900  0.500  0.925687  62.350511  24.706956  10.462412
  11882.216  11882.200  0.500  0.930814  62.340838  24.576793  10.314682
  11882.504  11882.500  0.500  0.935542  62.332662  24.457667  10.171778
  11882.806  11882.800  0.500  0.940814  62.324541  24.325879  10.026648
  11883.094  11883.100  0.500  0.946145  62.311254  24.191390  9.893769
  11883.414  11883.400  0.500  0.951804  62.294175  24.048296  9.772165
  11883.703  11883.700  0.500  0.956657  62.276541  23.925092  9.682308
  11883.998  11884.000  0.500  0.960474  62.228820  23.815682  9.617430
  11884.299  11884.300  0.500  0.963118  62.124824  23.713109  9.573357
  11884.594  11884.600  0.500  0.963888  61.981848  23.640308  9.556238
  11884.895  11884.900  0.500  0.962480  61.830277  23.615734  9.571054
  11885.172  11885.200  0.500  0.959576  61.701534  23.635102  9.612265
  11885.498  11885.500  0.500  0.954311  61.606622  23.723322  9.690471
  11885.780  11885.800  0.500  0.948151  61.587119  23.862348  9.783228
  11886.106  11886.100  0.500  0.940179  61.635023  24.072049  9.909566
  11886.395  11886.400  0.500  0.932033  61.692204  24.291457  10.034106
  11886.703  11886.700  0.500  0.922716  61.808717  24.565141  10.175673
  11887.004  11887.000  0.500  0.914204  61.920510  24.819940  10.303740
  11887.305  11887.300  0.500  0.905004  62.041132  25.098145  10.442710
  11887.600  11887.600  0.500  0.896378  62.101289  25.340104  10.557914
  11887.914  11887.900  0.500  0.887303  62.142105  25.587918  10.676810
  11888.209  11888.200  0.500  0.879198  62.156973  25.802326  10.781981
  11888.517  11888.500  0.500  0.870723  62.169864  26.027338  10.890020
  11888.788  11888.800  0.500  0.863207  62.168140  26.222963  10.987531
  11889.120  11889.100  0.500  0.855029  62.169994  26.439092  11.096340
  11889.409  11889.400  0.500  0.847931  62.157469  26.622042  11.195135
  11889.704  11889.700  0.500  0.840639  62.153739  26.815273  11.302682
  11889.999  11890.000  0.500  0.834275  62.148623  26.984266  11.405615
  11890.307  11890.300  0.500  0.827560  62.140613  27.162554  11.519172
  11890.590  11890.600  0.500  0.821704  62.132932  27.318709  11.618594
  11890.898  11890.900  0.500  0.816028  62.127761  27.471947  11.723342
  11891.181  11891.200  0.500  0.810957  62.127227  27.611363  11.820798
  11891.495  11891.500  0.500  0.805478  62.124195  27.761700  11.918459
  11891.685  11891.700  0.500  0.802379  62.103282  27.838493  11.968604
  11892.726  11892.690  0.500  0.788632  62.090518  28.218027  12.209609
  11893.711  11893.690  0.500  0.779320  62.072819  28.473906  12.409770
  11894.720  11894.710  0.500  0.772399  62.062821  28.667045  12.638727
  11895.779  11895.760  0.500  0.765922  62.033741  28.839791  12.866240
  11896.826  11896.820  0.500  0.756991  62.013914  29.089238  13.056573
  11897.898  11897.900  0.500  0.743175  61.998190  29.486431  13.250879
  11899.007  11899.000  0.500  0.724334  61.971083  30.034119  13.499251
  11900.135  11900.120  0.500  0.702888  61.938123  30.668873  13.799396
  11901.288  11901.260  0.500  0.680652  61.687820  31.231722  14.080684
  11902.434  11902.410  0.500  0.659167  61.266025  31.691829  14.312781
  11903.606  11903.590  0.500  0.639517  61.536602  32.463445  14.697904
  11904.784  11904.780  0.500  0.623310  61.857663  33.166014  15.069915
  11906.011  11906.000  0.500  0.610870  61.880608  33.593651  15.321602
  11907.252  11907.230  0.500  0.602671  61.864672  33.861490  15.486266
  11908.504  11908.480  0.500  0.597770  61.849219  34.019354  15.591548
  11909.764  11909.750  0.500  0.595657  61.832955  34.082340  15.655408
  11911.042  11911.040  0.500  0.595452  61.818875  34.081575  15.657294
  11912.357  11912.350  0.500  0.596542  61.801263  34.034752  15.597646
  11913.691  11913.680  0.500  0.598953  61.778778  33.940423  15.483380
  11915.044  11915.030  0.500  0.602791  61.732843  33.785283  15.321863
  11916.428  11916.400  0.500  0.608316  61.509965  33.477808  15.096111
  11917.794  11917.780  0.500  0.615619  61.057171  32.989592  14.807406
  11919.198  11919.190  0.500  0.624852  61.463238  32.903754  14.726080
  11920.632  11920.610  0.500  0.635224  61.674314  32.676095  14.597625
  11922.080  11922.050  0.500  0.645843  61.671885  32.329676  14.419688
  11923.521  11923.510  0.500  0.655623  61.654744  32.006122  14.237935
  11925.000  11924.990  0.500  0.664384  61.634515  31.716543  14.057687
  11926.498  11926.490  0.500  0.672789  61.612668  31.439909  13.871667
  11928.021  11928.010  0.500  0.680721  61.590759  31.180437  13.691031
  11929.570  11929.550  0.500  0.687841  61.569242  30.948405  13.530850
  11931.131  11931.110  0.500  0.694049  61.556756  30.750620  13.408179
  11932.674  11932.680  0.500  0.699731  61.521255  30.558760  13.306531
  11934.285  11934.280  0.500  0.705255  61.267983  30.265318  13.157283
  11935.903  11935.890  0.500  0.709595  60.841885  29.924687  12.976646
  11937.553  11937.530  0.500  0.711785  61.349259  30.108214  13.045384
  11939.178  11939.180  0.500  0.713397  61.414862  30.091856  13.038453
  11940.854  11940.850  0.500  0.715604  61.401609  30.019044  13.001642
  11942.548  11942.540  0.500  0.718314  61.385441  29.929912  12.951458
  11944.262  11944.250  0.500  0.720472  61.356437  29.851294  12.898332
  11945.994  11945.980  0.500  0.722170  61.332840  29.789185  12.853494
  11947.728  11947.730  0.500  0.723373  61.303001  29.738895  12.829604
  11949.499  11949.490  0.500  0.723723  61.283829  29.719198  12.829618
  11951.295  11951.280  0.500  0.723574  61.259544  29.711827  12.849442
  11953.092  11953.080  0.500  0.723037  61.230303  29.713600  12.891240
  11954.908  11954.910  0.500  0.722111  61.207845  29.730227  12.935310
  11956.756  11956.750  0.500  0.720648  61.181947  29.761151  12.973007
  11958.623  11958.610  0.500  0.718997  61.159610  29.799455  13.010399
  11960.479  11960.490  0.500  0.716880  61.130575  29.848433  13.051275
  11962.397  11962.390  0.500  0.714357  61.103671  29.910670  13.101118
  11964.315  11964.310  0.500  0.711580  61.072634  29.978602  13.156139
  11966.266  11966.250  0.500  0.707987  61.048151  30.074454  13.219379
  11968.198  11968.210  0.500  0.704239  61.025121  30.176000  13.281907
  11970.175  11970.180  0.500  0.699605  60.990822  30.299111  13.352603
  11972.184  11972.180  0.500  0.694739  60.953897  30.428474  13.428987
  11974.193  11974.190  0.500  0.690095  60.929325  30.557786  13.506674
  11976.203  11976.220  0.500  0.685605  60.898430  30.679729  13.575013
  11978.245  11978.280  0.500  0.681102  60.867617  30.802597  13.645733
  11980.325  11980.350  0.500  0.676958  60.843589  30.918298  13.716388
  11982.406  11982.440  0.500  0.673292  60.814665  31.017106  13.785174
  11984.612  11984.550  0.500  0.669535  60.765502  31.108688  13.855501
  11986.651  11986.680  0.500  0.667049  60.744987  31.175607  13.914175
  11988.803  11988.820  0.500  0.664542  60.709893  31.235806  13.961813
  11991.156  11990.990  0.500  0.662575  60.669730  31.276599  13.994367
  11993.284  11993.180  0.500  0.661212  60.650997  31.309578  14.017531
  11995.414  11995.380  0.500  0.660253  60.611237  31.319070  14.031621
  11997.612  11997.600  0.500  0.659646  60.578714  31.321277  14.036680
  11999.850  11999.850  0.500  0.659342  60.552386  31.317196  14.030992
  12002.119  12002.110  0.500  0.659132  60.526458  31.310344  14.019898
  12004.396  12004.390  0.500  0.659169  60.500697  31.295874  13.998019
  12006.680  12006.690  0.500  0.658962  60.472919  31.287972  13.976354
  12009.009  12009.010  0.500  0.658896  60.438447  31.272200  13.947863
  12011.363  12011.350  0.500  0.658906  60.407318  31.255770  13.919453
  12013.694  12013.700  0.500  0.659098  60.379724  31.235494  13.890959
  12016.082  12016.080  0.500  0.659231  60.341906  31.211790  13.862557
  12018.465  12018.470  0.500  0.659627  60.314042  31.185026  13.838127
  12020.892  12020.890  0.500  0.660245  60.286707  31.151620  13.812658
  12023.340  12023.320  0.500  0.660924  60.256798  31.115039  13.783079
  12025.782  12025.770  0.500  0.661692  60.219919  31.072112  13.755763
  12028.257  12028.250  0.500  0.662545  60.187530  31.028940  13.728553
  12030.726  12030.740  0.500  0.663484  60.152270  30.981652  13.701944
  12033.247  12033.250  0.500  0.664203  60.118761  30.942130  13.679717
  12035.775  12035.770  0.500  0.664968  60.080563  30.898829  13.656609
  12038.318  12038.320  0.500  0.665867  60.045627  30.853115  13.638068
  12040.905  12040.890  0.500  0.666969  60.008775  30.800209  13.624524
  12043.474  12043.470  0.500  0.666961  59.972002  30.781590  13.621149
  12046.076  12046.080  0.500  0.667059  59.809542  30.695187  13.602093
  12048.711  12048.700  0.500  0.666584  58.187060  29.876707  13.250517
  12051.366  12051.350  0.500  0.665912  59.745054  30.697278  13.631261
  12054.010  12054.010  0.500  0.665096  59.794323  30.747688  13.669851
  12056.693  12056.690  0.500  0.664172  59.771593  30.764395  13.691666
  12059.383  12059.390  0.500  0.663067  59.736244  30.780202  13.714586
  12062.132  12062.110  0.500  0.661919  59.707427  30.800685  13.737920
  12064.856  12064.850  0.500  0.660735  59.669843  30.817778  13.752118
  12067.601  12067.600  0.500  0.659494  59.633233  30.837121  13.767803
  12070.378  12070.380  0.500  0.658011  59.591754  30.861387  13.780076
  12073.183  12073.170  0.500  0.656814  59.561202  30.882519  13.794934
  12075.995  12075.990  0.500  0.655160  59.517801  30.911109  13.811834
  12078.834  12078.820  0.500  0.653636  59.475098  30.936026  13.830357
  12081.667  12081.670  0.500  0.652224  59.438348  30.960592  13.852420
  12084.553  12084.550  0.500  0.650620  59.396072  30.988235  13.874913
  12087.466  12087.440  0.500  0.649350  59.365976  31.011919  13.900972
  12090.348  12090.350  0.500  0.647698  59.314107  31.036050  13.918811
  12093.251  12093.270  0.500  0.646148  59.142411  30.994194  13.909154
  12096.213  12096.220  0.500  0.644635  59.259129  31.102389  13.964950
  12099.202  12099.190  0.500  0.643250  59.216163  31.122908  13.979894
  12102.160  12102.170  0.500  0.642067  59.178540  31.139978  13.991635
  12105.183  12105.180  0.500  0.640837  59.140505  31.158256  14.008590
  12108.196  12108.200  0.500  0.639428  59.097056  31.179248  14.029905
  12111.254  12111.250  0.500  0.638043  59.061824  31.203869  14.053452
  12114.308  12114.310  0.500  0.637025  59.020071  31.213560  14.069911
  12117.402  12117.390  0.500  0.636024  58.980486  31.223879  14.086949
  12120.516  12120.490  0.500  0.635062  58.937470  31.231133  14.098362
  12123.600  12123.610  0.500  0.634174  58.892161  31.234829  14.109141
  12126.762  12126.750  0.500  0.633300  58.842155  31.235612  14.115289
  12129.920  12129.900  0.500  0.632410  58.592682  31.130880  14.068597
  12133.080  12133.080  0.500  0.631427  58.779652  31.260921  14.131069
  12136.273  12136.270  0.500  0.630619  58.734601  31.262208  14.131315
  12139.506  12139.490  0.500  0.629639  58.692295  31.270315  14.130185
  12142.735  12142.720  0.500  0.628695  58.651239  31.277969  14.129545
  12145.965  12145.970  0.500  0.627715  58.609063  31.286115  14.123384
  12149.249  12149.250  0.500  0.626803  58.561916  31.289469  14.118109
  12152.553  12152.540  0.500  0.625791  58.517236  31.297252  14.112936
  12155.860  12155.850  0.500  0.624818  58.468025  31.301364  14.108425
  12159.194  12159.170  0.500  0.623911  58.417519  31.302723  14.106790
  12162.530  12162.520  0.500  0.622789  58.189377  31.215469  14.071241
  12165.906  12165.890  0.500  0.621873  58.339587  31.324721  14.126346
  12169.291  12169.270  0.500  0.620856  58.290048  31.329982  14.138448
  12172.684  12172.680  0.500  0.619835  58.242232  31.336256  14.155355
  12176.118  12176.100  0.500  0.619061  58.200383  31.337979  14.172881
  12179.586  12179.550  0.500  0.617798  58.146078  31.348321  14.192225
  12183.017  12183.010  0.500  0.616890  58.105657  31.354963  14.212177
  12186.502  12186.490  0.500  0.615835  58.053909  31.360119  14.233216
  12190.035  12189.990  0.500  0.614904  58.008440  31.364752  14.252293
  12193.524  12193.510  0.500  0.613776  57.959341  31.373561  14.269397
  12197.060  12197.050  0.500  0.612761  57.914913  31.381364  14.284198
  12200.618  12200.600  0.500  0.611681  57.741349  31.321112  14.268544
  12204.178  12204.180  0.500  0.610651  57.836495  31.405050  14.310572
  12207.799  12207.780  0.500  0.609484  57.782934  31.412620  14.320216
  12211.402  12211.390  0.500  0.608438  57.943903  31.533091  14.381130
  12215.027  12215.020  0.500  0.607165  57.891320  31.544612  14.386219
  12218.700  12218.680  0.500  0.606192  57.850336  31.552942  14.393975
  12222.375  12222.350  0.500  0.604838  57.797360  31.566780  14.400678
  12226.045  12226.040  0.500  0.603670  57.755834  31.580963  14.412142
  12229.764  12229.750  0.500  0.602394  57.705437  31.593681  14.419638
  12233.484  12233.480  0.500  0.601293  57.573790  31.556342  14.409577
  12237.233  12237.220  0.500  0.600047  56.797535  31.169691  14.235790
  12241.024  12240.990  0.500  0.598725  57.509665  31.602252  14.448579
  12244.784  12244.780  0.500  0.597368  57.489176  31.633872  14.473204
  12248.612  12248.580  0.500  0.596163  57.441968  31.646014  14.495164
  12252.430  12252.410  0.500  0.594883  57.390994  31.658413  14.515934
  12256.269  12256.250  0.500  0.593445  57.205064  31.601285  14.506677
  12260.150  12260.110  0.500  0.592242  57.277082  31.679141  14.557964
  12264.008  12263.990  0.500  0.590843  56.314561  31.190392  14.350822
  12267.907  12267.890  0.500  0.589518  57.087248  31.660270  14.571421
  12271.835  12271.810  0.500  0.588064  56.995377  31.655312  14.579113
  12275.759  12275.750  0.500  0.586884  57.088708  31.744580  14.632631
  12279.731  12279.710  0.500  0.585357  57.025022  31.757626  14.642976
  12283.687  12283.680  0.500  0.584039  56.867789  31.711841  14.626967
  12287.697  12287.680  0.500  0.582727  56.889566  31.765637  14.654524
  12291.724  12291.690  0.500  0.581314  55.517309  31.043221  14.320421
  12295.733  12295.730  0.500  0.580013  56.757288  31.777898  14.658851
  12299.804  12299.780  0.500  0.578515  56.569803  31.720409  14.631401
  12303.852  12303.850  0.500  0.577278  56.687358  31.825667  14.684656
  12307.975  12307.940  0.500  0.575884  56.636747  31.841628  14.691430
  12312.081  12312.050  0.500  0.574618  56.578429  31.849134  14.699293
  12316.189  12316.180  0.500  0.573186  56.521712  31.862782  14.706710
  12320.360  12320.330  0.500  0.571944  55.700432  31.438832  14.526668
  12324.514  12324.490  0.500  0.570732  56.297177  31.814176  14.698440
  12328.691  12328.680  0.500  0.569193  56.332106  31.882952  14.740324
  12332.923  12332.880  0.500  0.567947  56.292006  31.899995  14.761552
  12337.119  12337.110  0.500  0.566781  56.244420  31.910204  14.780686
  12341.377  12341.350  0.500  0.565373  56.191256  31.924965  14.798899
  12345.625  12345.610  0.500  0.564018  56.132109  31.934588  14.817758
  12349.903  12349.890  0.500  0.562752  55.946449  31.869301  14.802727
  12354.217  12354.190  0.500  0.561575  56.029155  31.953990  14.856209
  12358.527  12358.510  0.500  0.560271  55.893696  31.918339  14.851586
  12362.873  12362.850  0.500  0.559082  55.913064  31.967397  14.887533
  12367.223  12367.210  0.500  0.557957  55.873670  31.980815  14.904049
  12371.596  12371.590  0.500  0.556736  55.804641  31.980315  14.914397
  12376.018  12375.980  0.500  0.555450  55.760519  31.996160  14.924824
  12380.404  12380.400  0.500  0.554332  55.695848  31.994816  14.933343
  12384.867  12384.830  0.500  0.553022  55.243450  31.776528  14.835276
  12389.272  12389.280  0.500  0.551857  55.608222  32.023621  14.959381
  12393.774  12393.750  0.500  0.550531  55.546349  32.030446  14.967025
  12398.273  12398.240  0.500  0.549292  55.485754  32.035160  14.976185
  12402.762  12402.750  0.500  0.547986  55.427092  32.043116  14.982572
  12407.328  12407.280  0.500  0.546628  55.372422  32.055026  14.995671
  12411.830  12411.830  0.500  0.545279  55.304495  32.058919  15.009197
  12416.430  12416.400  0.500  0.544021  55.231288  32.056762  15.019109
  12420.993  12420.980  0.500  0.542754  55.190685  32.073824  15.038752
  12425.619  12425.590  0.500  0.541319  55.130733  32.085001  15.055056
  12430.243  12430.210  0.500  0.539987  55.041851  32.075971  15.062055
  12434.863  12434.860  0.500  0.538578  54.942323  32.063112  15.070347
  12439.567  12439.520  0.500  0.537242  54.925628  32.096202  15.097426
  12444.221  12444.200  0.500  0.535788  54.913579  32.135854  15.130810
  12448.920  12448.900  0.500  0.534464  54.849370  32.140806  15.144171
  12453.655  12453.620  0.500  0.532905  54.651523  32.074837  15.123516
  12458.367  12458.360  0.500  0.531496  54.729563  32.165941  15.176712
  12463.151  12463.110  0.500  0.530005  54.666166  32.176628  15.190893
  12467.898  12467.890  0.500  0.528576  54.586663  32.175772  15.198156
  12472.716  12472.690  0.500  0.527190  54.547719  32.197394  15.215861
  12477.517  12477.500  0.500  0.525681  54.482149  32.207257  15.223144
  12482.356  12482.330  0.500  0.524259  54.403518  32.206551  15.229685
  12487.213  12487.190  0.500  0.522789  54.138460  32.096769  15.182389
  12492.080  12492.060  0.500  0.521225  54.323353  32.256820  15.263126
  12496.985  12496.950  0.500  0.519846  54.254722  32.260529  15.272086
  12501.880  12501.860  0.500  0.518265  54.188985  32.272400  15.283220
  12506.807  12506.790  0.500  0.516943  54.127520  32.278448  15.296661
  12511.764  12511.730  0.500  0.515517  54.063338  32.286176  15.306728
  12516.726  12516.700  0.500  0.514077  53.995703  32.292249  15.320539
  12521.726  12521.690  0.500  0.512688  53.933020  32.299599  15.335224
  12526.723  12526.690  0.500  0.511312  53.872444  32.307762  15.350715
  12531.744  12531.720  0.500  0.509798  53.803199  32.315101  15.365062
  12536.777  12536.760  0.500  0.508454  53.729686  32.314357  15.376763
  12541.868  12541.820  0.500  0.507139  53.425345  32.173596  15.322942
  12546.923  12546.900  0.500  0.505780  53.632048  32.342019  15.416903
  12552.023  12552.000  0.500  0.504492  53.563983  32.342603  15.429478
  12557.147  12557.120  0.500  0.502903  53.492917  32.351043  15.444003
  12562.290  12562.260  0.500  0.501661  53.438576  32.358338  15.460253
  12567.444  12567.420  0.500  0.500401  53.369762  32.357414  15.472388
  12572.643  12572.600  0.500  0.499127  53.308596  32.361549  15.483358
  12577.833  12577.790  0.500  0.497739  53.219928  32.352583  15.485420
  12583.048  12583.010  0.500  0.496321  53.175829  32.371648  15.505347
  12588.247  12588.240  0.500  0.495011  53.111301  32.374750  15.516340
  12593.540  12593.490  0.500  0.493615  53.046267  32.380268  15.524953
  12598.789  12598.760  0.500  0.492321  52.978453  32.380745  15.535186
  12604.091  12604.050  0.500  0.490927  52.912681  32.385654  15.547832
  12609.425  12609.360  0.500  0.489603  52.852349  32.391598  15.558348
  12614.708  12614.690  0.500  0.488268  52.782882  32.392233  15.567060
  12620.086  12620.040  0.500  0.486842  52.715471  32.397029  15.579721
  12625.434  12625.410  0.500  0.485414  52.640723  32.397331  15.590698
  12630.842  12630.790  0.500  0.483945  52.582392  32.409017  15.608197
  12636.227  12636.200  0.500  0.482549  52.499829  32.403312  15.615551
  12641.651  12641.620  0.500  0.481226  52.409808  32.390589  15.626236
  12647.115  12647.070  0.500  0.479811  52.396111  32.427977  15.653277
  12652.577  12652.530  0.500  0.478268  52.326508  32.434890  15.669178
  12658.051  12658.010  0.500  0.476799  52.258756  32.440519  15.682817
  12663.536  12663.510  0.500  0.475273  52.190669  32.447726  15.698992
  12669.075  12669.030  0.500  0.473809  52.122565  32.452863  15.713697
  12674.619  12674.570  0.500  0.472369  52.055926  32.458073  15.724428
  12680.161  12680.120  0.500  0.470818  51.995755  32.470884  15.737963
  12685.722  12685.700  0.500  0.469314  51.916748  32.470356  15.748837
  12691.323  12691.300  0.500  0.467766  51.846628  32.476726  15.759865
  12696.950  12696.910  0.500  0.466349  51.785064  32.484157  15.773127
  12702.589  12702.550  0.500  0.464835  51.708122  32.485047  15.781481
  12708.254  12708.200  0.500  0.463280  51.643438  32.494902  15.794725
  12713.918  12713.870  0.500  0.461822  51.572596  32.497668  15.803493
  12719.600  12719.560  0.500  0.460387  51.499682  32.498316  15.815437
