# XDI/1.0 BlueSky/1.10.0 BMM/2023-1.0-py310-tiled
# Beamline.name: BMM (06BM) -- Beamline for Materials Measurement (NIST)
# Beamline.xray_source: NSLS-II three-pole wiggler
# Beamline.collimation: paraboloid mirror, 5 nm Rh on 30 nm Pt
# Beamline.focusing: not in use
# Beamline.harmonic_rejection: flat mirror, Si stripe, pitch = 7.0 mrad relative to beam
# Beamline.software: Bluesky 1.10.0, Ophyd 1.7.0, DataBroker 2.0.0b13, Python 3.10.8, 2023-1.0-py310-tiled
# Detector.I0: 10 cm N2
# Detector.I1: 25 cm N2
# Detector.I2: 25 cm N2
# Detector.fluorescence: SII Vortex ME4 (4-element silicon drift)
# Detector.deadtime_correction: Xspress3
# Element.symbol: Ce
# Element.edge: L3
# Element.reference: Ce
# Element.reference_material: CeO2
# Facility.name: NSLS-II
# Facility.energy: 3.0
# Facility.current: 399.9
# Facility.mode: top-off
# Facility.GUP: 123456
# Facility.SAF: 301027
# Facility.cycle: 2023-2
# Mono.name: Si(111)
# Mono.d_spacing: 3.1351860
# Mono.encoder_resolution: 0.0000050 deg/ct
# Mono.angle_offset: 16.0754326 deg
# Mono.scan_mode: pseudo channel cut
# Mono.scan_type: step
# Mono.direction: forward in energy
# Sample.name: Ce2Ti2O7
# Sample.prep: Powder in PEG pellet
# Sample.x: 142.329 mm
# Sample.y: 114.126 mm
# Sample.SDD_position: 45.000 mm
# Scan.experimenters: Bruce Ravel
# Scan.edge_energy: 5723.4
# Scan.start_time: 2023-05-06T10:34:35
# Scan.end_time: 2023-05-06T10:40:17
# Scan.transient_id: 74725
# Scan.uid: ffa7c10f-6ee4-4c2e-aaa3-b1590b842e49
# Scan.plot_hint: (Ce1+Ce2+Ce3+Ce4)/I0  --  ($8+$9+$10+$11)/$5
# Column.1: energy eV
# Column.2: requested_energy eV
# Column.3: measurement_time seconds
# Column.4: xmu 
# Column.5: I0 nA
# Column.6: It nA
# Column.7: Ir nA
# Column.8: Ce1 
# Column.9: Ce2 
# Column.10: Ce3 
# Column.11: Ce4 
# ///////////
# sample courtesy Martin Stennett, University of Sheffield
# -----------
# energy  requested_energy  measurement_time  xmu  I0  It  Ir  Ce1  Ce2  Ce3  Ce4
  5523.402  5523.400  0.500  105.726607  109.451039  1.337065  0.098803  2906.336920  3055.847463  2849.875698  2759.826846
  5533.407  5533.400  0.500  107.518339  109.769292  1.376962  0.103325  3034.583958  3053.868215  2961.923752  2751.836079
  5543.418  5543.400  0.500  107.701353  110.103433  1.418176  0.107642  3034.583958  3069.895105  2915.933466  2837.876126
  5553.414  5553.400  0.500  108.749541  110.429128  1.459999  0.112384  2902.320373  3211.937806  2917.924912  2976.933867
  5563.410  5563.400  0.500  108.850700  110.761385  1.503094  0.117320  3040.644207  3172.941253  2903.944147  2938.924735
  5573.412  5573.400  0.500  109.625467  111.020695  1.544751  0.122067  2989.806899  3201.961629  2963.964847  3014.962152
  5583.408  5583.400  0.500  112.590218  111.259696  1.587503  0.127257  3052.777759  3324.001605  3105.003850  3044.970282
  5593.404  5593.400  0.500  112.502599  111.476534  1.629345  0.132312  3055.361784  3302.008268  3109.035078  3074.994687
  5603.409  5603.400  0.500  111.216515  111.624879  1.672441  0.137648  3047.524382  3224.983862  3128.042266  3013.979546
  5613.405  5613.400  0.500  113.914488  111.783761  1.715423  0.143274  3165.671295  3330.034808  3169.074398  3069.009400
  5623.693  5623.400  0.500  114.115133  111.852776  1.759959  0.148729  3133.965798  3350.032145  3140.060401  3140.036058
  5633.388  5633.400  0.500  116.075839  112.018503  1.805324  0.154502  3304.438693  3447.078332  3118.077611  3133.047145
  5643.389  5643.400  0.500  116.461255  112.107711  1.852828  0.160714  3253.922832  3426.098064  3200.108040  3176.075819
  5653.396  5653.400  0.500  118.186460  112.185402  1.898448  0.166655  3346.476352  3410.087306  3284.137546  3218.094396
  5663.399  5663.400  0.500  122.272680  112.218938  1.945989  0.173009  3327.817036  3669.173402  3454.202325  3270.117566
  5673.398  5673.400  0.500  123.621460  112.269774  1.990617  0.179074  3480.383408  3630.196785  3415.206339  3353.166821
  5683.399  5683.400  0.500  127.850520  112.305277  2.035205  0.185629  3544.553599  3745.222066  3572.290136  3496.222283
  5693.392  5693.400  0.500  132.743912  112.260530  2.077316  0.191680  3698.015423  3965.311923  3664.320991  3574.253583
  5695.391  5695.400  0.500  135.083627  112.243519  2.085458  0.192866  3780.238187  3899.310948  3782.390978  3700.321481
  5697.389  5697.400  0.500  137.362493  112.237619  2.092606  0.193918  3838.116591  4084.390224  3818.417782  3676.314562
  5699.389  5699.400  0.500  141.055982  112.227037  2.101468  0.195277  3953.111239  4016.337842  3953.446867  3907.399048
  5701.389  5701.400  0.500  143.224339  112.187344  2.107791  0.196373  3986.614281  4346.494433  3886.449455  3848.400052
  5703.398  5703.400  0.500  149.318391  112.199140  2.111710  0.197185  4186.866589  4280.478370  4190.561931  4095.488100
  5705.399  5705.400  0.500  154.249983  112.183162  2.115733  0.198128  4151.527412  4581.565865  4346.617163  4224.540377
  5707.386  5707.400  0.500  160.139123  112.179038  2.118651  0.198650  4506.398295  4719.630986  4382.628370  4355.595132
  5709.399  5709.400  0.500  168.520525  112.146534  2.117930  0.198831  4677.747508  5015.778846  4595.747423  4609.719084
  5711.392  5711.400  0.500  181.530076  112.144680  2.113002  0.198880  5073.909228  5225.875959  5141.987383  4915.859675
  5713.403  5713.400  0.500  198.945151  112.120394  2.099642  0.198047  5535.428048  5755.096294  5579.188164  5436.096164
  5713.891  5713.900  0.500  207.889625  112.114879  2.091311  0.197427  5715.851749  6106.217778  5756.257754  5729.192854
  5714.388  5714.400  0.500  211.698012  112.142247  2.086421  0.196991  5820.415332  6197.276260  5864.322865  5858.276386
  5714.888  5714.900  0.500  221.292213  112.111339  2.078141  0.196214  6057.066041  6342.347937  6192.508127  6217.444084
  5715.390  5715.400  0.500  227.541676  112.099548  2.070472  0.195586  6361.831686  6569.473407  6405.566077  6170.447823
  5715.889  5715.900  0.500  238.676832  112.087780  2.059135  0.194524  6782.986292  6980.608828  6507.615743  6481.545472
  5716.389  5716.400  0.500  255.164122  112.081582  2.045736  0.193304  7011.592854  7453.841964  7132.940563  7000.823090
  5716.892  5716.900  0.500  266.891242  112.049693  2.029363  0.191795  7452.046134  7804.006689  7375.067668  7273.961238
  5717.389  5717.400  0.500  281.651053  112.058092  2.010704  0.189986  7819.613318  8270.235937  7761.247509  7710.182965
  5717.891  5717.900  0.500  307.596877  112.053084  1.986183  0.187822  8453.297451  8945.574875  8733.783267  8334.523012
  5718.392  5718.400  0.500  328.319243  112.055734  1.958157  0.185142  9037.382723  9671.883987  9021.935379  9058.851608
  5718.895  5718.900  0.500  355.738538  112.044999  1.929226  0.182221  9915.904116  10288.193982  9966.408902  9688.217292
  5719.393  5719.400  0.500  383.645874  112.041859  1.898873  0.179135  10617.006233  11163.750734  10771.934906  10431.704972
  5719.894  5719.900  0.500  408.769182  112.025261  1.864827  0.176019  11415.919020  11983.216594  11245.210763  11148.127874
  5720.390  5720.400  0.500  448.472599  112.035255  1.823836  0.172142  12401.938838  13219.982042  12392.013241  12230.808121
  5720.894  5720.900  0.500  491.243400  112.015458  1.771001  0.166953  13792.964684  14228.589616  13539.694720  13465.605571
  5721.395  5721.400  0.500  518.525342  112.008219  1.705555  0.160748  15238.115741  14228.589616  13539.694720  15072.700286
  5721.894  5721.900  0.500  625.941318  112.000533  1.621352  0.152913  17194.543042  18098.279440  17573.643123  17239.295884
  5722.393  5722.400  0.500  713.141840  111.996171  1.520404  0.143269  19875.123247  20643.310470  19883.547899  19467.173701
  5722.894  5722.900  0.500  825.826792  111.983746  1.400831  0.131718  22570.603603  23933.071449  23254.505037  22720.997308
  5723.396  5723.400  0.500  930.769400  111.991140  1.264569  0.118784  26825.637935  23933.071449  27049.399728  26429.817049
  5723.897  5723.900  0.500  1111.748833  111.981912  1.129078  0.105779  30991.573233  32141.351900  31130.959923  30231.875088
  5724.396  5724.400  0.500  1245.600286  111.982751  1.003445  0.093671  34413.800857  36002.852728  34860.398604  34208.694826
  5724.895  5724.900  0.500  1378.239619  111.953485  0.899996  0.083620  37961.786229  39732.194003  39093.301719  37511.446869
  5725.395  5725.400  0.500  1469.978954  112.210309  0.828640  0.076465  40602.431713  42669.024391  41530.406690  40144.930197
  5725.899  5725.900  0.500  1534.843331  112.199078  0.777715  0.071174  42180.286871  44768.751832  43405.465440  41853.501884
  5726.396  5726.400  0.500  1579.667717  112.214046  0.750852  0.068018  43665.814287  45731.003195  44488.658295  43375.429456
  5726.898  5726.900  0.500  1587.399185  112.211938  0.744468  0.067107  44048.722979  45970.449398  44585.080803  43520.885911
  5727.397  5727.400  0.500  1560.023756  112.186673  0.760254  0.068007  42909.320387  45375.186534  43745.180056  42984.188791
  5727.902  5727.900  0.500  1549.780549  112.209177  0.796595  0.071068  42909.320387  45375.186534  42630.904304  42984.188791
  5728.400  5728.400  0.500  1463.207463  112.180644  0.849107  0.075660  41394.099317  43606.221180  39982.995634  39160.239301
  5728.897  5728.900  0.500  1347.865976  112.185508  0.912598  0.080768  37122.063354  39188.496488  37789.200737  37111.268960
  5729.394  5729.400  0.500  1273.182425  112.191574  0.977307  0.086146  34968.856308  37104.966013  35571.934716  35194.582949
  5729.900  5729.900  0.500  1190.201065  112.190474  1.044005  0.091711  32900.224202  34578.023251  33293.231343  32757.742808
  5730.403  5730.400  0.500  1120.864171  112.175512  1.107207  0.096972  31098.599376  32394.613060  31320.744403  30919.555103
  5730.896  5730.900  0.500  1106.210832  112.160634  1.164385  0.101670  29438.395528  32394.613060  31320.744403  30919.555103
  5731.398  5731.400  0.500  1002.599131  112.148898  1.220381  0.106616  27984.487226  29283.170960  27612.938385  27559.791005
  5731.897  5731.900  0.500  955.597438  112.098627  1.271633  0.111425  26527.269938  27827.676836  26711.974536  26054.239485
  5732.402  5732.400  0.500  904.342219  112.130960  1.320544  0.115938  24901.848979  26019.033579  25659.833537  24824.045064
  5732.902  5732.900  0.500  867.611344  112.155462  1.362554  0.120128  23823.691249  25267.131854  24372.557045  23843.971074
  5733.400  5733.400  0.500  830.969209  112.118944  1.397481  0.123911  22995.687484  24323.357470  23007.295622  22841.049568
  5733.904  5733.900  0.500  805.813467  112.107185  1.426718  0.126901  22477.458217  23455.756801  22510.915723  21893.348410
  5734.405  5734.400  0.500  793.406542  112.107209  1.450102  0.129221  21908.454141  23084.339285  22275.646655  21678.153255
  5734.901  5734.900  0.500  773.591098  112.138466  1.466166  0.130709  21404.821021  22447.850833  21667.988369  21228.659214
  5735.406  5735.400  0.500  765.867501  112.111682  1.474524  0.131548  21404.821021  22209.550062  21401.910202  20846.412508
  5735.903  5735.900  0.500  769.150917  112.089580  1.478501  0.131832  21153.667869  22386.663576  21633.963647  21039.508021
  5736.399  5736.400  0.500  771.711571  112.093661  1.480050  0.131507  21411.435439  22304.738794  21644.171055  21143.629653
  5736.902  5736.900  0.500  781.072025  112.095650  1.479662  0.131298  21616.938363  22764.999384  21738.076575  21434.761755
  5737.408  5737.400  0.500  773.455017  112.097841  1.478849  0.131130  21317.052430  22558.889021  21543.991600  21282.704212
  5737.905  5737.900  0.500  784.742232  112.092940  1.478431  0.131105  21794.962796  22720.107230  21967.140229  21481.853702
  5738.404  5738.400  0.500  777.623180  112.040011  1.478077  0.131004  21581.143403  22494.910954  21814.193805  21234.661201
  5738.899  5738.900  0.500  786.759597  112.062556  1.479959  0.131521  21697.781304  22905.266158  21982.266333  21580.977756
  5739.401  5739.400  0.500  783.356027  112.059743  1.482412  0.132023  21479.060010  22900.302786  21905.352444  21497.960080
  5739.906  5739.900  0.500  780.931083  112.050055  1.485002  0.132582  21544.246692  22745.135885  21996.295147  21217.692989
  5740.405  5740.400  0.500  777.707380  112.058842  1.488228  0.133432  21638.398371  22462.767837  21788.126292  21259.696325
  5740.903  5740.900  0.500  778.727935  112.052122  1.491859  0.134154  21356.493916  22769.912818  21822.029969  21309.680892
  5741.399  5741.400  0.500  773.745152  112.054319  1.495705  0.135166  21117.830907  22575.873892  21461.896488  21545.885012
  5741.899  5741.900  0.500  778.483496  112.025693  1.498996  0.136238  21482.165556  22575.873892  21935.411346  21216.702474
  5742.402  5742.400  0.500  776.118795  112.017047  1.503000  0.137231  21567.026642  22286.653247  21806.138233  21278.717259
  5742.903  5742.900  0.500  775.076375  112.026972  1.507711  0.138286  21501.731020  22561.023915  21595.066130  21171.637914
  5743.403  5743.400  0.500  770.385542  111.990498  1.510628  0.138928  21314.797443  22376.695978  21375.781148  21208.586270
  5743.898  5743.900  0.500  771.179049  112.001101  1.514395  0.139868  21314.797443  22319.596622  21612.010465  21126.497942
  5744.397  5744.400  0.500  768.829975  112.004315  1.517634  0.140463  21130.941267  22365.718266  21340.938512  21274.676550
  5744.898  5744.900  0.500  772.661966  112.003368  1.520468  0.140939  21180.966079  22402.902392  21700.157926  21256.716333
  5745.400  5745.400  0.500  768.514549  112.006904  1.523370  0.141573  21403.223186  22436.645855  21272.692918  20966.373339
  5745.906  5745.900  0.500  771.503539  111.978941  1.525488  0.141934  21278.071125  22391.702253  21394.760404  21327.615319
  5746.402  5746.400  0.500  765.580804  111.990937  1.527296  0.142346  21108.200344  22172.627311  21394.760404  21062.523810
  5746.899  5746.900  0.500  765.503750  111.962115  1.527991  0.142520  21042.100838  21914.497838  21425.048425  21325.771506
  5747.400  5747.400  0.500  768.104194  111.967296  1.528950  0.143058  21270.084609  22330.874307  21454.014576  20947.575911
  5747.904  5747.900  0.500  771.110426  111.928597  1.529005  0.142946  21173.672609  22352.790267  21380.962243  21401.882898
  5748.401  5748.400  0.500  770.717423  111.942798  1.528138  0.143219  21173.672609  22323.792091  21523.040846  21255.759335
  5749.398  5749.390  0.500  779.389017  111.917417  1.524259  0.142928  21697.037880  22481.001325  21784.330957  21264.835489
  5750.401  5750.390  0.500  794.735846  111.880363  1.517363  0.142757  22015.306573  22885.320973  22123.434492  21891.273262
  5751.419  5751.410  0.500  803.786655  111.863398  1.509887  0.142208  22128.645948  23373.535030  22456.776708  21955.348888
  5752.473  5752.460  0.500  821.342828  111.847144  1.498987  0.141322  22668.866556  23970.041051  22799.149190  22426.793076
  5753.525  5753.520  0.500  831.889165  111.821809  1.487335  0.140343  22840.933622  23864.230240  23518.961039  22799.226185
  5754.609  5754.600  0.500  839.106935  111.814318  1.475459  0.139242  23236.636529  24226.425019  23513.877270  22847.231007
  5755.706  5755.700  0.500  855.350601  111.783559  1.465205  0.138404  23538.236339  24677.831994  23926.332035  23471.734421
  5756.830  5756.820  0.500  868.335439  111.762808  1.455748  0.137616  23818.394069  25116.378130  24412.677253  23700.157477
  5757.971  5757.960  0.500  878.957182  111.730582  1.447114  0.136862  24295.739925  25368.503961  24274.671163  24267.482696
  5759.121  5759.110  0.500  892.769376  111.728438  1.441577  0.136454  24735.221142  25866.903619  24585.827784  24559.775400
  5760.298  5760.290  0.500  890.322095  111.711802  1.439555  0.136196  24661.044980  25866.903619  24689.884280  24241.652877
  5761.491  5761.480  0.500  904.345879  111.691580  1.442616  0.136519  24859.562609  26210.098242  25219.225463  24718.933867
  5762.706  5762.700  0.500  893.657627  111.663084  1.451330  0.137554  24734.492225  25737.927917  25140.531830  24175.614467
  5763.937  5763.930  0.500  882.445383  111.605998  1.464160  0.138640  24420.474996  25809.822712  24379.643850  23876.256372
  5765.184  5765.180  0.500  868.213121  111.574281  1.481086  0.140321  23726.994675  25151.429773  24126.549603  23865.280980
  5766.466  5766.450  0.500  855.071567  111.570389  1.498836  0.142033  23461.042446  24786.891345  23715.022915  23437.710719
  5767.735  5767.740  0.500  852.997553  111.442546  1.515383  0.143719  23461.042446  24786.891345  23403.648383  23408.636875
  5769.049  5769.050  0.500  833.584527  111.371606  1.531342  0.145426  22862.513804  24266.456742  22980.536952  22728.140350
  5770.380  5770.380  0.500  827.890194  111.388118  1.547505  0.147051  22912.723937  23796.107522  22989.386222  22518.912785
  5771.730  5771.730  0.500  819.392313  111.344948  1.561333  0.148541  22912.723937  23548.816679  22580.054993  22193.598609
  5773.104  5773.100  0.500  816.110394  111.286104  1.573630  0.150104  22446.156092  23650.951696  22534.962137  22189.676644
  5774.489  5774.480  0.500  812.383935  111.274352  1.584490  0.151164  22355.061175  23404.827572  22542.986270  22094.620818
  5775.898  5775.890  0.500  802.968732  111.211378  1.592925  0.152317  22045.149045  23109.663589  22367.031995  21777.414379
  5777.321  5777.310  0.500  801.593082  111.153845  1.600545  0.153618  21929.213593  23343.841147  22275.868436  21551.229797
  5778.759  5778.750  0.500  805.184799  111.112043  1.606103  0.154685  21860.972562  23206.557851  22410.762486  21987.435459
  5780.215  5780.210  0.500  810.935894  111.125223  1.612908  0.155653  22119.180094  23329.717291  22486.872751  22179.661599
  5781.701  5781.690  0.500  797.421627  111.087810  1.617242  0.156410  21867.862938  22822.222625  21922.362264  21971.374561
  5783.196  5783.190  0.500  804.105182  111.039951  1.622324  0.157470  22123.569857  23255.520760  22260.519406  21648.189736
  5784.718  5784.710  0.500  802.104819  111.009836  1.627528  0.158275  22050.274952  22917.286870  22288.713725  21785.248734
  5786.259  5786.250  0.500  802.381213  110.971597  1.629706  0.158839  22050.274952  22917.286870  22288.713725  21785.248734
  5787.815  5787.810  0.500  813.750406  110.932742  1.630807  0.159274  22386.236777  23551.826689  22211.875240  22121.625299
  5789.389  5789.380  0.500  818.113225  110.886691  1.631606  0.159745  22115.968538  23637.001378  22603.054052  22361.844255
  5790.987  5790.980  0.500  828.187422  110.850183  1.630467  0.159943  22677.286863  23723.070746  22890.372331  22513.996989
  5792.594  5792.590  0.500  837.000884  110.800627  1.627679  0.160000  22970.013128  24028.374374  22951.537543  22790.297532
  5794.233  5794.230  0.500  838.297124  110.768648  1.623537  0.159612  23008.755429  24084.403678  22951.537543  22812.342158
  5795.890  5795.880  0.500  848.640731  110.713668  1.620172  0.159703  23080.607647  24314.828398  23744.262259  22816.429720
  5797.558  5797.550  0.500  856.016365  110.671493  1.617903  0.159971  23461.940580  24719.052049  23642.123907  22913.492823
  5799.248  5799.240  0.500  862.720049  110.638361  1.617966  0.160183  23477.711010  24807.092015  23785.246979  23379.882504
  5800.957  5800.950  0.500  866.790436  110.595918  1.619503  0.160931  23733.557394  24751.953274  23936.224078  23441.749589
  5802.688  5802.680  0.500  868.044750  110.536784  1.623503  0.161646  23718.205971  24992.320918  24067.544667  23172.803406
  5804.439  5804.430  0.500  868.427947  110.505588  1.628538  0.162355  23496.012016  24888.370435  23994.595329  23587.163049
  5806.197  5806.190  0.500  866.144681  110.464971  1.635730  0.163329  23673.567860  24846.004502  23893.314461  23265.760420
  5807.985  5807.980  0.500  871.183099  110.433219  1.643965  0.164370  23770.761399  24877.171343  23886.548393  23673.072686
  5809.788  5809.780  0.500  868.963243  110.373646  1.654311  0.165721  23758.344912  24669.938881  23917.387891  23564.969687
  5811.620  5811.610  0.500  865.202260  110.319534  1.662254  0.166970  23759.720255  24804.082743  23849.281468  23035.625934
  5813.459  5813.450  0.500  867.938695  110.288867  1.671712  0.168166  23634.472069  24817.246475  23710.247508  23562.009040
  5815.316  5815.310  0.500  854.464315  110.246472  1.680692  0.169023  23319.305399  24319.703693  23521.062929  23041.603808
  5817.198  5817.190  0.500  857.816369  110.151685  1.689438  0.170421  23397.573822  24352.729139  23612.020827  23127.594708
  5819.095  5819.090  0.500  859.109670  110.073588  1.697358  0.171527  23329.464394  24488.982972  23759.173243  22987.663295
  5821.015  5821.010  0.500  855.845699  110.056659  1.706385  0.172669  23024.706361  24292.822873  23518.130430  23355.858453
  5822.958  5822.950  0.500  855.967272  109.961025  1.712542  0.173538  23029.553874  24158.645575  23714.132028  23220.707455
  5824.921  5824.910  0.500  854.688061  109.946488  1.720337  0.174630  23268.662645  24158.645575  23547.082536  22995.559678
  5826.887  5826.880  0.500  863.059971  109.917855  1.727029  0.175713  23440.687856  24469.935837  23582.187559  23372.889155
  5828.888  5828.880  0.500  857.988775  109.867495  1.732328  0.176582  23322.385521  24466.916255  23494.087356  22981.688211
  5830.898  5830.890  0.500  866.959093  109.786381  1.737398  0.177389  23598.392280  24370.728450  23914.414077  23296.766695
  5832.928  5832.920  0.500  867.370435  109.724383  1.742446  0.178555  23475.337005  24691.228315  23812.356630  23192.763974
  5834.985  5834.980  0.500  873.866711  109.643259  1.746613  0.179469  23537.617530  24744.251119  23963.569173  23568.156723
  5837.057  5837.050  0.500  871.261340  109.536220  1.751607  0.180384  23779.258944  24604.994284  23683.444608  23366.975935
  5839.146  5839.140  0.500  872.383739  109.485460  1.756831  0.181444  23486.940473  24961.188259  23689.254144  23375.952468
  5841.254  5841.250  0.500  877.532358  109.410194  1.763153  0.182397  23802.504137  24886.193021  23632.135833  23690.152855
  5843.383  5843.380  0.500  881.252644  109.310185  1.767274  0.183390  23599.831533  25062.360721  24211.655904  23456.041227
  5845.524  5845.520  0.500  885.591602  109.239456  1.770556  0.184280  23834.082896  25152.473173  24145.804075  23609.184288
  5847.694  5847.690  0.500  885.822259  109.137509  1.773240  0.185174  23861.087360  24907.341677  24154.695764  23753.310237
  5849.883  5849.880  0.500  888.684624  109.049008  1.778909  0.185858  23935.666388  25195.620655  24168.705471  23610.183750
  5852.087  5852.080  0.500  891.168074  108.912945  1.784502  0.187097  23816.202422  25036.293420  24718.186748  23489.057113
  5854.305  5854.300  0.500  896.229245  108.797890  1.792614  0.188509  24111.131127  25253.669270  24357.780839  23785.269589
  5856.556  5856.550  0.500  888.347963  108.696312  1.802102  0.190054  24276.002432  24880.389765  23937.576822  23466.177965
  5858.815  5858.810  0.500  888.504239  108.541639  1.810195  0.191495  23874.603965  24945.376330  24067.599457  23552.126394
  5861.095  5861.090  0.500  888.955784  108.382405  1.820042  0.193079  23762.081674  24770.135791  23997.636302  23817.311595
  5863.397  5863.390  0.500  881.836627  108.140464  1.829636  0.194421  23403.578691  24784.218130  23751.428376  23422.997200
  5865.719  5865.710  0.500  880.765108  107.846858  1.835679  0.195546  23281.262779  24724.243732  23654.295500  23327.947423
  5868.057  5868.050  0.500  882.317364  107.315734  1.836292  0.196151  23304.558900  24456.891801  23616.238419  23308.846026
  5870.410  5870.400  0.500  885.734469  105.846253  1.820963  0.194788  23338.137444  24298.525051  23367.777823  22747.234689
  5872.786  5872.780  0.500  899.999226  86.693130  1.497691  0.160927  19315.415059  20098.034446  19250.141965  19360.158787
  5875.175  5875.170  0.500  890.852979  108.825190  1.887428  0.202850  23799.097572  25137.602281  24177.955680  23832.589535
  5877.594  5877.590  0.500  894.137488  108.912231  1.893697  0.204142  24109.357497  25419.921768  24069.760922  23783.468215
  5880.023  5880.020  0.500  904.305606  108.580326  1.893452  0.204723  24210.049891  25403.915553  24411.045423  24164.786898
  5882.475  5882.470  0.500  905.183909  108.286648  1.896321  0.205539  24030.567974  25515.948105  24485.114922  23987.700592
  5884.958  5884.950  0.500  910.078634  108.057638  1.898672  0.206708  24184.155160  25904.278896  24317.961137  23934.552116
  5887.453  5887.440  0.500  916.450770  107.838236  1.902733  0.207685  24522.300248  25432.888561  24604.345941  24268.899206
  5889.958  5889.950  0.500  917.301180  107.620053  1.907960  0.208734  24522.300248  25613.981844  24533.076568  24050.642580
  5892.473  5892.470  0.500  914.262683  107.439337  1.915644  0.209995  24092.047336  25553.918174  24606.123821  23975.687335
  5895.027  5895.020  0.500  911.675373  107.230694  1.922400  0.211280  24227.027582  25296.849108  24458.198709  23777.507732
  5897.597  5897.590  0.500  917.705793  107.019483  1.928958  0.212556  24265.684049  25324.919878  24474.029921  24147.765515
  5900.177  5900.170  0.500  918.892507  106.776806  1.935670  0.213790  24265.684049  25538.011695  24364.070584  23948.640300
  5902.797  5902.780  0.500  917.768472  106.547133  1.944262  0.215236  23958.995140  25215.734618  24549.211729  24061.658166
  5905.420  5905.400  0.500  914.304578  106.267244  1.951720  0.216747  24033.724234  25153.554329  24210.942343  23762.406398
  5908.070  5908.050  0.500  917.025580  105.894071  1.959880  0.218308  23953.508911  25326.803926  24130.891441  23696.367728
  5910.723  5910.710  0.500  914.621662  105.385405  1.964401  0.219384  23953.508911  24950.477405  23984.680027  23499.107617
  5913.404  5913.390  0.500  904.652524  104.720178  1.965562  0.220269  23461.259420  24731.123700  23449.204505  23093.785836
  5916.105  5916.090  0.500  918.760264  91.623352  1.731085  0.194979  20932.596926  21716.709650  21015.015367  20515.572866
  5918.813  5918.810  0.500  908.795665  105.776080  2.011225  0.226824  23710.232661  25129.672749  24113.886874  23175.050497
  5921.564  5921.550  0.500  911.411322  106.659369  2.039862  0.230431  24133.109901  25110.836777  24203.006702  23763.603224
  5924.311  5924.300  0.500  911.279069  106.011779  2.037022  0.231040  24031.582272  25110.836777  24034.760235  23429.136434
  5927.079  5927.080  0.500  919.082066  105.200246  2.030440  0.230992  23921.911131  25094.558626  23959.769764  23711.420171
  5929.865  5929.870  0.500  926.205455  104.391158  2.024338  0.231304  23921.911131  25094.558626  23959.769764  23711.420171
  5932.688  5932.690  0.500  925.365056  105.622216  2.056836  0.235453  23973.657090  25162.724816  24402.921729  24199.804329
  5935.514  5935.520  0.500  928.806486  105.207450  2.057441  0.236262  24373.041207  25394.934051  24220.876827  23728.510182
  5938.372  5938.370  0.500  934.912413  104.505814  2.052934  0.236463  24107.287790  25428.856163  24415.133564  23752.505678
  5941.249  5941.250  0.500  938.947815  103.358607  2.039803  0.235722  23894.607691  25373.702516  24073.680434  23706.347530
  5944.127  5944.140  0.500  955.178542  97.857695  1.941399  0.225405  22964.798050  24470.387364  23177.317247  22859.068080
  5947.049  5947.050  0.500  941.393980  104.550221  2.084438  0.242395  24169.589462  25646.228292  24317.072412  24290.058808
  5949.974  5949.970  0.500  944.252323  104.666038  2.099289  0.244693  24333.748053  25835.283333  24841.516548  23820.601941
  5952.920  5952.920  0.500  947.048400  104.159405  2.102182  0.245903  24429.966805  25509.017750  24522.181618  24182.831333
  5955.885  5955.890  0.500  945.373944  103.730565  2.106172  0.247138  24248.314229  25387.976654  24390.117643  24037.764610
  5958.856  5958.870  0.500  944.512232  103.252188  2.109726  0.248363  24059.759223  25335.801940  24094.758014  24032.635675
  5961.868  5961.880  0.500  952.297473  102.919977  2.116204  0.249899  24142.668868  25466.929564  24620.290059  23780.545979
  5964.894  5964.900  0.500  950.946408  102.543010  2.122694  0.251517  24039.574817  25687.050554  24041.757010  23744.524212
  5967.943  5967.950  0.500  946.771206  102.146128  2.129353  0.253129  24039.574817  25135.528730  24041.757010  23492.152479
  5971.000  5971.010  0.500  953.351535  101.739031  2.134700  0.254494  23576.101014  25325.686730  24170.824681  23920.448465
  5974.078  5974.090  0.500  954.995353  101.311048  2.139069  0.255805  23807.947388  25470.770227  24006.686011  23466.176791
  5977.176  5977.190  0.500  954.409187  100.886608  2.143744  0.257302  23749.430584  24900.570327  24011.770373  23625.334064
  5980.307  5980.310  0.500  952.942119  100.403134  2.146326  0.258498  23755.560344  24900.570327  23832.367748  23189.876926
  5983.443  5983.450  0.500  957.237719  99.696697  2.143192  0.259082  23606.321769  24691.152343  23749.138335  23386.826703
  5986.594  5986.600  0.500  966.453992  98.373012  2.127995  0.258266  23606.321769  24820.132835  23769.117794  22877.417960
  5989.769  5989.780  0.500  974.758633  82.686182  1.797945  0.219253  20002.791678  20803.738370  19853.840723  19938.699135
  5992.959  5992.970  0.500  965.755121  100.591430  2.202071  0.268821  23981.391806  25349.622973  24234.519222  23581.154470
  5996.176  5996.190  0.500  964.145883  99.863889  2.200714  0.269254  23783.456427  24692.254875  24057.440709  23750.205516
  5999.408  5999.420  0.500  970.235777  99.265008  2.201042  0.270536  23971.405792  24850.365602  24081.671190  23407.019154
  6002.666  6002.670  0.500  971.576808  98.694691  2.203445  0.271351  23642.217563  24754.969330  23859.321901  23632.963842
  6005.938  6005.950  0.500  976.955354  98.200940  2.206547  0.272666  23448.663180  24963.138896  23799.069016  23727.062573
  6009.223  6009.240  0.500  973.266830  97.751133  2.211109  0.274154  23551.426716  24654.888471  23807.034778  23124.585872
  6012.537  6012.550  0.500  977.105477  97.286397  2.214297  0.275576  23551.426716  24654.888471  23686.139036  23166.617016
  6015.858  6015.870  0.500  978.317512  96.831508  2.218116  0.276998  23357.331806  24831.086748  23521.000558  23022.540500
  6019.214  6019.220  0.500  977.602766  96.375685  2.222126  0.278588  23291.006496  24733.992510  23612.947626  22579.189365
  6022.579  6022.590  0.500  977.209550  95.953318  2.226879  0.280211  23125.613894  24281.625430  23359.831781  22999.427580
  6025.952  6025.970  0.500  984.878049  95.444354  2.230515  0.281688  23362.505599  24175.453900  23519.758688  22943.331016
  6029.376  6029.380  0.500  988.691971  95.019224  2.235055  0.283266  23230.975412  24445.702256  23441.783014  22826.283014
  6032.801  6032.800  0.500  990.042056  94.592135  2.239552  0.284742  23297.839909  24298.533560  23433.770931  22620.047653
  6036.242  6036.250  0.500  988.765661  94.197349  2.246610  0.286781  23087.204303  24181.419380  23205.448331  22665.031959
  6039.696  6039.710  0.500  994.438010  93.720163  2.249670  0.288152  23237.371896  24287.394532  23030.187209  22643.938514
  6043.178  6043.190  0.500  998.879984  93.288387  2.253285  0.289915  22821.776103  24204.405857  23336.528778  22821.191967
  6046.676  6046.690  0.500  993.976819  92.837144  2.257248  0.291223  22832.616127  23848.082293  23025.311997  22571.958537
  6050.199  6050.210  0.500  999.216376  92.376954  2.262134  0.292870  22890.164161  23930.161271  22866.249713  22617.989830
  6053.741  6053.750  0.500  999.562439  91.843411  2.263942  0.293964  22822.742929  23780.891013  22697.882630  22501.707514
  6057.288  6057.300  0.500  1009.495577  91.271273  2.265247  0.295453  23108.147039  23835.976821  22797.075522  22396.746600
  6060.869  6060.880  0.500  999.824036  90.704581  2.266516  0.296520  22448.854792  23673.719512  22442.614849  22123.431171
  6064.472  6064.480  0.500  1003.611419  90.195854  2.270577  0.298114  22370.885495  23559.631014  22619.814524  21971.258042
  6068.076  6068.090  0.500  1011.523509  89.720577  2.275062  0.299621  22360.762700  23457.466345  22759.871610  22176.372389
  6071.706  6071.720  0.500  1006.180717  89.256790  2.278575  0.301196  22453.796056  23399.368644  22132.302102  21822.993991
  6075.369  6075.380  0.500  1007.923327  88.783256  2.281532  0.302875  22029.719952  23260.427082  22083.294179  22113.273528
  6079.036  6079.050  0.500  1017.845443  88.270082  2.283205  0.304252  22153.130138  23260.427082  22318.470349  22113.273528
  6082.735  6082.740  0.500  1016.508690  87.800086  2.287179  0.305669  22216.189727  23087.163146  22035.189749  21911.008053
  6086.448  6086.450  0.500  1017.101119  87.325957  2.290469  0.307433  21900.569238  23069.979170  21958.933298  21889.847186
  6090.160  6090.180  0.500  1023.095732  86.836144  2.293768  0.308881  21900.569238  23046.157051  21958.933298  21936.028391
  6093.900  6093.920  0.500  1024.285157  86.323535  2.296682  0.310704  21892.778234  22966.094119  22089.276795  21471.766610
  6097.676  6097.690  0.500  1025.862735  85.826397  2.300060  0.312099  21775.525231  22807.831686  21949.116278  21513.629072
  6101.471  6101.480  0.500  1022.766197  85.339755  2.303730  0.313870  21405.551752  22669.687657  21804.884541  21402.492669
  6105.264  6105.280  0.500  1031.215838  84.803802  2.305966  0.315475  21575.082276  22604.640515  21868.808049  21402.492669
  6109.091  6109.110  0.500  1032.499834  84.272626  2.308119  0.316496  21590.004611  22531.537111  21541.554990  21348.375686
  6112.935  6112.950  0.500  1033.450197  83.742635  2.311080  0.318371  21349.650719  22396.367274  21595.556770  21202.268195
  6116.791  6116.810  0.500  1039.875673  83.193094  2.314475  0.319800  21461.645068  22401.353226  21520.348947  21127.127003
  6120.667  6120.690  0.500  1038.917164  82.654101  2.315698  0.320975  20958.009161  22401.353226  21520.348947  20991.052570
  6124.572  6124.590  0.500  1029.399709  82.114702  2.317718  0.322405  20756.053037  21890.875253  21010.017237  20871.904322
  6128.490  6128.510  0.500  1034.618208  81.523102  2.317701  0.323648  20978.748001  21823.888017  20964.986239  20577.662936
  6132.426  6132.450  0.500  1047.204621  80.932260  2.318630  0.324952  20825.788080  22047.014521  21103.083130  20776.750842
  6136.390  6136.410  0.500  1035.875369  80.328939  2.317273  0.326288  20732.070138  21727.681888  20561.651291  20189.365634
  6140.363  6140.380  0.500  1042.364875  79.712578  2.315720  0.327189  20652.153796  21666.558567  20358.483233  20412.396272
  6144.365  6144.380  0.500  1042.106881  79.055299  2.311563  0.327784  20652.153796  21294.299288  20358.483233  20079.134412
  6148.368  6148.390  0.500  1030.966473  78.352834  2.305097  0.328035  19955.982055  21167.178916  19925.075881  19730.907768
  6152.413  6152.430  0.500  1039.546944  77.569455  2.290515  0.327501  20031.839589  21001.212547  19987.156861  19616.880532
