# XDI/1.0 BlueSky/1.10.0 BMM/2023-1.0-py310-tiled
# Beamline.name: BMM (06BM) -- Beamline for Materials Measurement (NIST)
# Beamline.xray_source: NSLS-II three-pole wiggler
# Beamline.collimation: paraboloid mirror, 5 nm Rh on 30 nm Pt
# Beamline.focusing: not in use
# Beamline.harmonic_rejection: flat mirror, Si stripe, pitch = 7.0 mrad relative to beam
# Beamline.software: Bluesky 1.10.0, Ophyd 1.7.0, DataBroker 2.0.0b13, Python 3.10.8, 2023-1.0-py310-tiled
# Detector.I0: 10 cm N2
# Detector.I1: 25 cm N2
# Detector.I2: 25 cm N2
# Detector.fluorescence: SII Vortex ME4 (4-element silicon drift)
# Detector.deadtime_correction: Xspress3
# Element.symbol: Ce
# Element.edge: L3
# Element.reference: Ce
# Element.reference_material: CeO2
# Facility.name: NSLS-II
# Facility.energy: 3.0
# Facility.current: 399.7
# Facility.mode: top-off
# Facility.GUP: 123456
# Facility.SAF: 301027
# Facility.cycle: 2023-2
# Mono.name: Si(111)
# Mono.d_spacing: 3.1351860
# Mono.encoder_resolution: 0.0000050 deg/ct
# Mono.angle_offset: 16.0754326 deg
# Mono.scan_mode: pseudo channel cut
# Mono.scan_type: step
# Mono.direction: forward in energy
# Sample.name: Ce2SiO7
# Sample.prep: Powder in PEG pellet
# Sample.x: 142.329 mm
# Sample.y: 114.126 mm
# Sample.SDD_position: 45.000 mm
# Scan.experimenters: Bruce Ravel
# Scan.edge_energy: 5723.4
# Scan.start_time: 2023-05-06T11:00:13
# Scan.end_time: 2023-05-06T11:05:54
# Scan.transient_id: 74749
# Scan.uid: 6b3cb612-6d4e-4f77-87d1-a0faeda308f1
# Scan.plot_hint: (Ce1+Ce2+Ce3+Ce4)/I0  --  ($8+$9+$10+$11)/$5
# Column.1: energy eV
# Column.2: requested_energy eV
# Column.3: measurement_time seconds
# Column.4: xmu 
# Column.5: I0 nA
# Column.6: It nA
# Column.7: Ir nA
# Column.8: Ce1 
# Column.9: Ce2 
# Column.10: Ce3 
# Column.11: Ce4 
# ///////////
# sample courtesy Martin Stennett, University of Sheffield
# -----------
# energy  requested_energy  measurement_time  xmu  I0  It  Ir  Ce1  Ce2  Ce3  Ce4
  5523.408  5523.400  0.500  3.137447  109.017672  2.036670  0.150612  76.007396  94.009328  89.010966  83.009442
  5533.408  5533.400  0.500  3.281531  109.412052  2.094199  0.156799  76.007396  94.009328  92.011214  97.011067
  5543.411  5543.400  0.500  3.135020  109.739693  2.150903  0.163674  75.007122  84.007930  90.010500  95.010617
  5553.412  5553.400  0.500  3.051095  110.135756  2.210847  0.170164  96.009150  90.008486  77.008939  73.008027
  5563.410  5563.400  0.500  3.549726  110.724395  2.275980  0.177751  87.008311  106.009965  95.011314  105.011680
  5573.413  5573.400  0.500  3.541229  110.990844  2.335697  0.184945  94.009556  89.009077  103.012727  107.012692
  5583.407  5583.400  0.500  3.587841  111.221304  2.395381  0.192230  84.008516  107.010722  110.013592  98.011543
  5593.407  5593.400  0.500  3.751572  111.432461  2.456083  0.199506  93.009517  110.011034  115.014348  100.011969
  5603.407  5603.400  0.500  3.773439  111.581730  2.516030  0.207345  111.011354  113.011479  88.010962  109.013013
  5613.405  5613.400  0.500  3.659716  111.770257  2.579913  0.215242  107.011333  89.009264  120.015488  93.011264
  5623.424  5623.400  0.500  4.668189  111.833311  2.638326  0.223037  108.011133  132.013482  137.017024  145.017380
  5633.388  5633.400  0.500  4.948598  111.964537  2.700858  0.231300  131.014700  138.015389  145.019425  140.018017
  5643.388  5643.400  0.500  6.227114  112.103710  2.765708  0.239890  160.017454  198.021609  165.021445  175.022075
  5653.394  5653.400  0.500  6.251265  112.150698  2.827093  0.248518  178.019529  176.019226  186.024727  161.020252
  5663.399  5663.400  0.500  8.691429  112.192809  2.890980  0.257129  253.027915  221.024230  247.031657  254.031989
  5673.397  5673.400  0.500  11.831505  112.256763  2.953844  0.266319  325.037599  339.039371  328.045041  336.044459
  5683.402  5683.400  0.500  16.417158  112.275099  3.013874  0.274966  452.054371  480.056599  431.061038  480.066081
  5693.395  5693.400  0.500  25.982417  112.244649  3.068050  0.283296  718.088307  711.085935  732.106503  755.106527
  5695.396  5695.400  0.500  29.081357  112.217308  3.074996  0.284846  809.099398  847.103071  823.119558  784.109580
  5697.393  5697.400  0.500  31.799919  112.247980  3.085400  0.286192  892.111023  910.112035  950.138174  817.115418
  5699.390  5699.400  0.500  31.802633  112.238401  3.092739  0.287861  892.111023  910.112035  950.138174  817.115418
  5701.400  5701.400  0.500  41.018163  112.234359  3.096039  0.288660  1111.144393  1159.151733  1166.177726  1167.173384
  5703.392  5703.400  0.500  46.142961  112.238482  3.099827  0.289585  1269.448909  1339.175465  1293.200867  1277.190653
  5705.401  5705.400  0.500  54.089152  112.219889  3.101281  0.290531  1482.199726  1542.208507  1566.246058  1479.224362
  5707.399  5707.400  0.500  65.469242  112.206543  3.097653  0.290791  1881.256980  1923.263487  1742.280421  1799.276460
  5709.397  5709.400  0.500  77.452593  112.201849  3.088618  0.290196  2135.303213  2311.330058  2156.354883  2087.336010
  5711.400  5711.400  0.500  95.845838  112.227020  3.070117  0.289448  2612.130595  2777.423002  2745.488698  2621.450432
  5713.397  5713.400  0.500  125.264210  112.198741  3.037746  0.286828  3384.559552  3584.594953  3600.690344  3484.641786
  5713.892  5713.900  0.500  134.132648  112.170718  3.024281  0.285823  3763.718668  3872.649734  3758.715379  3650.671634
  5714.391  5714.400  0.500  142.852697  112.226950  3.011372  0.284486  3949.671049  4141.720867  3966.775209  3973.755314
  5714.888  5714.900  0.500  154.518925  112.254579  2.994703  0.283143  4344.994248  4510.798637  4276.861255  4212.802752
  5715.388  5715.400  0.500  167.398928  112.214646  2.973152  0.280995  4639.836795  4944.899848  4543.937076  4655.937825
  5715.891  5715.900  0.500  177.883086  112.230696  2.951385  0.279114  4639.836795  5314.005011  4954.058561  5056.042053
  5716.387  5716.400  0.500  200.676543  112.217553  2.923387  0.276453  5559.855580  5921.174169  5552.226351  5486.174456
  5716.889  5716.900  0.500  223.123266  112.219393  2.889959  0.273552  6180.672162  6465.310842  6231.415002  6161.359508
  5717.387  5717.400  0.500  246.225348  112.130299  2.847272  0.269516  6776.565749  7173.527961  6786.625910  6872.602180
  5717.891  5717.900  0.500  273.157178  112.216493  2.801815  0.265078  7651.217022  8035.809062  7464.883208  7500.831145
  5718.392  5718.400  0.500  309.316882  112.221325  2.746401  0.260035  8620.260495  8947.170584  8581.288207  8563.231156
  5718.895  5718.900  0.500  339.970518  112.205672  2.688185  0.254325  9282.885047  9957.505308  9523.671873  9382.558161
  5719.393  5719.400  0.500  375.695780  112.207207  2.631917  0.248977  10234.757352  10871.898176  10619.148586  10429.969942
  5719.894  5719.900  0.500  415.246839  112.196873  2.574046  0.243292  11416.839409  12108.449092  11620.610243  11443.498001
  5720.393  5720.400  0.500  460.957748  112.201685  2.502597  0.236412  12632.869181  13560.078872  12913.245887  12614.042181
  5720.893  5720.900  0.500  515.825421  112.198207  2.415704  0.228020  14279.397347  15135.050945  14355.245062  14104.993886
  5721.393  5721.400  0.500  582.504781  112.185059  2.310988  0.218139  16148.944010  16842.989788  16333.323872  16023.075566
  5721.895  5721.900  0.500  650.531529  112.187045  2.182445  0.205919  16148.944010  19803.727910  18751.944752  18276.593031
  5722.393  5722.400  0.500  775.725834  112.185777  2.028740  0.191349  21331.188828  22702.050765  21632.253175  21359.912628
  5722.896  5722.900  0.500  912.153356  112.184916  1.841810  0.173675  25374.556444  26566.370854  25484.770733  24904.150049
  5723.395  5723.400  0.500  1073.921817  112.183488  1.626244  0.153016  29965.724728  30954.666602  30205.353578  29350.550209
  5723.898  5723.900  0.500  1257.888908  112.175507  1.410154  0.132267  34644.425091  36791.145109  34823.962433  34844.793832
  5724.395  5724.400  0.500  1435.973109  112.182310  1.214433  0.113627  39892.250460  41396.627295  40429.533099  39372.368974
  5724.893  5724.900  0.500  1589.173859  112.156590  1.060237  0.098432  44165.089757  46340.376990  44536.708218  43194.146038
  5725.391  5725.400  0.500  1700.181624  112.170201  0.954206  0.088121  46733.418160  49620.773106  47719.912246  46635.610735
  5725.901  5725.900  0.500  1741.882249  112.188921  0.879031  0.080372  46733.418160  51891.837573  47719.912246  49074.721814
  5726.398  5726.400  0.500  1844.928561  112.184827  0.837228  0.075867  50975.202681  53510.526668  52006.042950  50481.218528
  5726.895  5726.900  0.500  1847.244719  112.193256  0.825724  0.074311  50975.202681  53673.709906  51949.214245  50650.272371
  5727.395  5727.400  0.500  1816.093308  112.241270  0.845725  0.075670  50062.584599  52776.756367  51086.311178  49914.967616
  5727.899  5727.900  0.500  1757.285226  112.214271  0.891207  0.079414  48688.727410  50932.048123  49412.581994  48159.123507
  5728.400  5728.400  0.500  1677.395244  112.234104  0.958687  0.085053  46425.540965  48788.186987  47054.848341  45992.376816
  5728.899  5728.900  0.500  1583.834757  112.188906  1.040634  0.092123  43863.392842  46365.247522  44212.059754  43247.988911
  5729.398  5729.400  0.500  1492.982747  112.230316  1.129355  0.099540  41490.514931  43262.938238  41935.207532  40869.265350
  5729.899  5729.900  0.500  1404.568901  112.228497  1.220865  0.107263  38937.012639  40882.281934  39313.689778  38499.671745
  5730.401  5730.400  0.500  1311.984012  112.238240  1.308468  0.114666  36263.837616  38097.602541  36841.079871  36052.256476
  5730.898  5730.900  0.500  1238.622530  112.236742  1.388883  0.121444  34547.030500  35960.445311  34525.575853  33985.905713
  5731.399  5731.400  0.500  1185.399754  112.222648  1.465567  0.128170  32947.079269  34320.149792  33299.638996  32461.831625
  5731.897  5731.900  0.500  1127.538612  112.190042  1.533493  0.134249  31458.955905  32525.365603  31664.075077  30850.207391
  5732.404  5732.400  0.500  1081.729329  112.199452  1.595744  0.140107  30102.478276  31628.163263  30343.259105  29295.537088
  5732.901  5732.900  0.500  1031.304735  112.223727  1.653342  0.145796  28897.570824  29650.269103  29040.863349  28148.157790
  5733.400  5733.400  0.500  996.796530  112.250048  1.703590  0.150905  27685.949353  29036.469179  27873.810068  27294.229539
  5733.903  5733.900  0.500  964.357026  112.225757  1.747384  0.155331  26743.757053  28014.501707  27103.069347  26364.369279
  5734.404  5734.400  0.500  943.563734  112.219532  1.786001  0.159109  26304.666147  27427.191515  26221.385746  25933.036942
  5734.903  5734.900  0.500  922.199003  112.197912  1.815800  0.162058  25671.268571  26982.437929  25621.806988  25193.288866
  5735.404  5735.400  0.500  922.213440  112.196155  1.839920  0.164238  25671.268571  26982.437929  25621.806988  25193.288866
  5735.904  5735.900  0.500  897.611623  112.206101  1.857905  0.165463  24904.216988  26160.022459  24987.319527  24665.941638
  5736.405  5736.400  0.500  891.343952  112.192554  1.868060  0.166042  24576.976657  25875.611126  25065.016298  24484.550814
  5736.902  5736.900  0.500  886.140094  112.185116  1.875227  0.166679  24750.860273  25775.567522  24785.911016  24099.390132
  5737.405  5737.400  0.500  887.088657  112.170900  1.879113  0.166714  24494.290257  25789.678851  24817.990391  24403.573365
  5737.905  5737.900  0.500  881.693712  112.193442  1.883592  0.166978  24230.316108  25719.558217  24798.982922  24171.395125
  5738.404  5738.400  0.500  885.733607  112.211488  1.887031  0.167419  24435.505285  25790.560648  24902.967633  24260.452924
  5738.899  5738.900  0.500  881.920725  112.208473  1.890229  0.167930  24188.224920  25791.574037  24647.762646  24331.416355
  5739.403  5739.400  0.500  879.452719  112.201839  1.892157  0.168536  24535.576140  25471.409034  24551.848631  24117.378881
  5739.908  5739.900  0.500  887.242471  112.173948  1.894422  0.169137  24535.576140  25958.653546  24652.788052  24378.472670
  5740.406  5740.400  0.500  886.649308  112.198449  1.897922  0.170165  24603.799902  25889.628961  24652.781886  24334.466581
  5740.904  5740.900  0.500  881.979581  112.185051  1.901009  0.170946  24457.135899  25704.562462  24718.905776  24064.319762
  5741.400  5741.400  0.500  885.157907  112.238637  1.905629  0.172438  24465.635336  25829.738581  24718.905776  24334.637619
  5741.900  5741.900  0.500  888.300574  112.228805  1.910158  0.173359  24782.702165  25995.804233  24653.927938  24260.477197
  5742.400  5742.400  0.500  875.821304  112.227592  1.914208  0.174915  24185.969808  25829.524737  24320.609054  23955.212400
  5742.903  5742.900  0.500  888.398850  112.211902  1.918893  0.175968  24516.656980  26020.713721  24838.047461  24313.506293
  5743.403  5743.400  0.500  876.126813  112.197322  1.921975  0.177061  24414.721071  25579.472551  24362.633887  23942.254277
  5743.897  5743.900  0.500  878.043189  112.199939  1.926332  0.177806  24229.153205  25239.131188  24782.739602  24265.368698
  5744.399  5744.400  0.500  880.689905  112.157805  1.929257  0.178551  24554.009193  25465.293370  24555.667075  24201.276735
  5744.898  5744.900  0.500  878.811871  112.185474  1.932421  0.179501  24428.783979  25503.266434  24514.631198  24143.244883
  5745.402  5745.400  0.500  881.133225  112.178198  1.933244  0.179850  24384.401076  25712.527143  24508.607875  24238.401005
  5745.906  5745.900  0.500  878.706929  112.135747  1.934948  0.180412  24261.822009  25684.573241  24347.626104  24240.436589
  5746.401  5746.400  0.500  882.993199  112.137397  1.933765  0.180361  24401.055347  25653.361714  24797.900522  24164.241033
  5746.898  5746.900  0.500  883.017321  112.131359  1.933248  0.180376  24459.026049  25686.658385  24750.874202  24117.373452
  5747.399  5747.400  0.500  886.754331  112.117959  1.930378  0.180548  24616.113245  25918.696273  24753.911056  24132.364854
  5747.901  5747.900  0.500  895.033246  112.136371  1.925174  0.180183  24605.777095  26060.903405  25060.250643  24638.849194
  5748.404  5748.400  0.500  901.395244  112.093342  1.918092  0.179746  25026.478677  26087.959846  25199.181097  24726.785637
  5749.397  5749.390  0.500  913.744154  112.069518  1.901387  0.178487  25313.664921  26439.221594  25584.767840  25065.212536
  5750.402  5750.390  0.500  939.487535  112.040998  1.879879  0.176952  26242.186361  27516.106820  26063.204485  25439.623591
  5751.417  5751.410  0.500  954.919009  112.025912  1.855085  0.175059  26441.416607  27910.486240  26668.629116  25955.141048
  5752.473  5752.460  0.500  958.614492  112.010702  1.830207  0.172636  26441.416607  28309.895251  26668.629116  25955.141048
  5753.527  5753.520  0.500  1002.264581  111.973042  1.806763  0.170572  27515.966286  29254.855400  28217.309649  27238.483076
  5754.611  5754.600  0.500  1018.067677  111.952329  1.786359  0.168632  28279.273564  29594.234657  28292.571711  27808.967952
  5755.707  5755.700  0.500  1036.264102  111.919075  1.769693  0.167350  28728.643410  30226.797787  29066.096724  27956.181780
  5756.832  5756.820  0.500  1046.158902  111.884376  1.758833  0.166252  29090.521437  30248.712414  29139.061695  28570.540245
  5757.969  5757.960  0.500  1053.351571  111.814490  1.752788  0.165752  29125.605049  30588.151541  29271.390912  28794.821260
  5759.121  5759.110  0.500  1054.129654  111.808527  1.753811  0.166250  28947.239893  30793.149475  29294.406050  28825.888413
  5760.298  5760.290  0.500  1048.095373  111.775651  1.762913  0.166802  29088.532605  30197.930470  29215.310849  28649.768755
  5761.488  5761.480  0.500  1041.072707  111.749543  1.777864  0.168290  28833.640281  30208.621539  28911.794907  28385.342195
  5762.709  5762.700  0.500  1024.298842  111.736305  1.801111  0.170780  28629.698980  29477.104816  28521.553954  27823.010098
  5763.944  5763.930  0.500  1017.765387  111.694548  1.827629  0.173293  28629.698980  29477.104816  28196.445621  27375.595234
  5765.173  5765.180  0.500  994.776367  111.562555  1.852859  0.175588  27525.254742  28617.422644  27481.709962  27355.405922
  5766.451  5766.450  0.500  975.771024  111.542632  1.879477  0.178311  26793.219669  28509.984848  27105.300306  26431.563170
  5767.740  5767.740  0.500  967.315751  111.522551  1.903635  0.180639  26752.370492  27697.528739  27155.200164  26272.420970
  5769.056  5769.050  0.500  955.852181  111.504704  1.922080  0.182493  26121.958094  27785.289975  26744.710968  25930.055424
  5770.388  5770.380  0.500  950.439142  111.474240  1.935641  0.184132  26154.536873  27559.388757  26262.452266  25973.103433
  5771.737  5771.730  0.500  951.478478  111.432479  1.944517  0.185320  26306.272629  27620.130459  26278.340786  25820.861967
  5773.109  5773.100  0.500  950.400110  111.406488  1.951654  0.186449  26115.838781  27630.351204  26454.636728  25679.911487
  5774.489  5774.480  0.500  955.877896  111.385901  1.958645  0.187265  26448.424223  27630.351204  26651.621785  25740.923303
  5775.894  5775.890  0.500  954.528824  111.335505  1.963830  0.188054  26448.424223  27411.045420  26651.621785  25761.857340
  5777.322  5777.310  0.500  950.987871  111.319211  1.970266  0.189273  26456.882938  27387.106414  26204.260397  25814.969809
  5778.756  5778.750  0.500  957.344672  111.263346  1.974828  0.190267  26456.882938  27547.452771  26681.881860  25831.153573
  5780.218  5780.210  0.500  949.534832  111.233281  1.979926  0.191252  26063.124034  27444.282691  26274.478590  25837.989371
  5781.697  5781.690  0.500  952.579229  111.230659  1.985984  0.192233  26202.761898  27503.404908  26409.746582  25840.101628
  5783.194  5783.190  0.500  961.434459  111.176160  1.991427  0.193199  26289.232896  28029.595711  26505.599986  26064.162652
  5784.715  5784.710  0.500  964.254917  111.142091  1.994614  0.194085  26447.545878  28029.595711  26654.884127  26037.282138
  5786.256  5786.250  0.500  965.378402  111.105231  1.994596  0.194605  26754.057441  27882.550509  26622.773682  25999.208606
  5787.817  5787.810  0.500  965.721187  111.434262  1.999952  0.195516  26524.173045  27766.601067  27178.269472  26145.383922
  5789.388  5789.380  0.500  975.264828  111.427788  2.000088  0.195894  26753.001821  28239.779995  27156.200045  26522.620634
  5790.986  5790.980  0.500  976.301413  111.375630  1.998685  0.196090  26753.001821  28185.045177  27197.403971  26600.734186
  5792.597  5792.590  0.500  981.739928  111.334345  1.999883  0.196630  26871.083965  28393.013516  27479.539721  26557.734935
  5794.236  5794.230  0.500  984.795095  111.315728  2.001744  0.197416  26864.052518  28617.363947  27532.804561  26608.961594
  5795.887  5795.880  0.500  995.273449  111.265658  2.004448  0.197908  27265.340950  28887.574736  27439.599454  27147.240502
  5797.557  5797.550  0.500  987.757110  111.225396  2.006660  0.198549  27169.055912  28521.129033  27268.418287  26905.072935
  5799.245  5799.240  0.500  989.212631  111.178232  2.008481  0.199270  27169.055912  28521.129033  27268.418287  27020.308397
  5800.959  5800.950  0.500  1002.563633  111.140959  2.010772  0.199940  27764.926931  28576.514190  27825.942221  27258.500588
  5802.688  5802.680  0.500  999.246750  111.056600  2.013074  0.200515  27492.596298  28633.313812  27536.673228  27310.363486
  5804.440  5804.430  0.500  1007.056111  111.101523  2.018962  0.201559  27839.976521  28912.743712  27670.034828  27462.712834
  5806.194  5806.190  0.500  1005.865388  111.064639  2.025697  0.202575  27839.976521  28912.743712  27894.064933  27069.291484
  5807.987  5807.980  0.500  1007.495844  110.997067  2.032382  0.203318  27241.416331  29184.871463  27783.993899  27618.802140
  5809.788  5809.780  0.500  1013.435602  110.937087  2.039526  0.204441  27772.924017  29121.754869  28367.470907  27165.443596
  5811.619  5811.610  0.500  1012.392278  110.895323  2.046410  0.205633  27616.201566  29040.489471  28078.258057  27534.619744
  5813.456  5813.450  0.500  1010.398100  110.868548  2.052875  0.206554  27598.017728  29263.831001  27746.976752  27412.545011
  5815.316  5815.310  0.500  1014.552022  110.823894  2.061053  0.207563  27625.877972  29599.178911  27865.132562  27346.416584
  5817.196  5817.190  0.500  1008.700863  110.762273  2.068734  0.208719  27378.869318  28794.807630  28070.577124  27481.746396
  5819.096  5819.090  0.500  1002.627957  110.706132  2.079614  0.209932  27306.203334  28794.807630  27603.692742  27292.358816
  5821.018  5821.010  0.500  1019.967128  110.634178  2.089430  0.211562  27885.890874  29546.281478  28017.275980  27393.776118
  5822.957  5822.950  0.500  1015.945949  110.590589  2.097685  0.212670  28054.449208  29022.874787  28057.198867  27219.538315
  5824.918  5824.910  0.500  1011.178871  110.530542  2.105297  0.213975  27498.866072  29241.794224  27805.013646  27220.474882
  5826.890  5826.880  0.500  1013.052731  110.470338  2.111685  0.214788  27539.858137  29115.762546  27822.044321  27434.613080
  5828.889  5828.880  0.500  1018.397114  110.404508  2.116917  0.216073  27539.858137  29155.775461  28232.323268  27507.675291
  5830.894  5830.890  0.500  1017.272584  110.352469  2.124458  0.217355  27916.894496  29120.842466  27789.069767  27431.734199
  5832.931  5832.920  0.500  1014.268781  110.287670  2.132634  0.218626  27982.343861  29087.730645  27667.880023  27123.385782
  5834.987  5834.980  0.500  1018.474558  110.212858  2.138565  0.219841  28016.630543  28901.624218  27898.184478  27432.552927
  5837.054  5837.050  0.500  1021.049070  110.146867  2.147874  0.221308  27787.360709  29169.963992  28006.246467  27501.785379
  5839.145  5839.140  0.500  1021.263348  110.053336  2.155422  0.222742  27787.360709  29164.057001  28152.369944  27289.650657
  5841.255  5841.250  0.500  1030.336599  109.994734  2.163033  0.224040  28154.645553  29529.501824  27981.400642  27666.052578
  5843.384  5843.380  0.500  1024.489649  109.887531  2.168382  0.224861  28103.457543  29078.040901  27953.363943  27443.775411
  5845.522  5845.520  0.500  1025.117155  109.820265  2.171535  0.226229  28103.457543  29078.040901  27953.363943  27443.775411
  5847.693  5847.690  0.500  1034.902130  109.716351  2.173787  0.227294  27932.632586  29519.302035  28215.584460  27878.165895
  5849.881  5849.880  0.500  1035.172699  109.646107  2.180120  0.228511  28351.913763  29233.190803  28345.583628  27571.968349
  5852.082  5852.080  0.500  1041.919864  109.524857  2.186038  0.229373  28024.935507  29868.581543  28461.601697  27761.004956
  5854.308  5854.300  0.500  1037.490494  109.402541  2.193522  0.230910  28046.310563  29320.199410  28436.594219  27700.992519
  5856.557  5856.550  0.500  1039.360737  109.245770  2.200414  0.232243  27988.937469  29395.235724  28376.596097  27784.995170
  5858.818  5858.810  0.500  1037.935107  109.108535  2.208453  0.233577  27952.694891  29554.226748  28112.656794  27628.000108
  5861.101  5861.090  0.500  1043.787737  108.944329  2.215995  0.234975  28053.957148  29564.276612  28188.465632  27908.054849
  5863.395  5863.390  0.500  1045.779057  108.723748  2.223710  0.236580  28101.129946  29379.173235  28193.453744  28027.262162
  5865.717  5865.710  0.500  1049.817061  108.410027  2.226959  0.237583  27985.679166  29436.246600  28464.639761  27924.130417
  5868.060  5868.050  0.500  1047.192025  107.813770  2.224654  0.237755  27973.404366  29575.281932  27931.271406  27421.762071
  5870.409  5870.400  0.500  1056.736909  106.380231  2.204522  0.236229  27705.168913  29400.084051  27950.065042  27360.598319
  5872.784  5872.780  0.500  1062.893866  87.294287  1.818552  0.195673  22994.108179  24182.817579  23049.020919  22558.615549
  5875.175  5875.170  0.500  1055.478030  109.338475  2.286588  0.246212  28396.284996  30219.203037  28447.051920  28341.818080
  5877.594  5877.590  0.500  1058.382038  109.486509  2.297043  0.248046  28722.847346  30044.970150  28866.089492  28244.647440
  5880.028  5880.020  0.500  1056.011571  109.141161  2.300944  0.249297  28719.438299  29733.583163  28790.970163  28010.337073
  5882.476  5882.470  0.500  1062.347082  108.872640  2.305307  0.250348  28417.577253  30132.991240  29097.443965  28012.519027
  5884.957  5884.950  0.500  1057.293387  108.632760  2.310704  0.251623  28417.577253  30132.991240  28563.939890  27742.190386
  5887.446  5887.440  0.500  1061.129767  108.404396  2.318695  0.253292  28409.127778  29784.453677  28867.280722  27970.268950
  5889.956  5889.950  0.500  1056.243265  108.193187  2.325790  0.254755  28510.789800  29611.402496  28339.879987  27816.253081
  5892.473  5892.470  0.500  1065.045841  108.004606  2.332720  0.256165  28510.789800  29809.747116  28658.954683  28050.364627
  5895.025  5895.020  0.500  1061.737551  107.806036  2.340800  0.257794  28354.802492  29718.615678  28462.950444  27925.347542
  5897.595  5897.590  0.500  1060.615179  107.582671  2.348837  0.259384  28245.419855  29718.615678  28504.742306  27635.035964
  5900.177  5900.170  0.500  1062.166569  107.302884  2.355910  0.260735  28236.871164  29588.612527  28357.793530  27790.259430
  5902.789  5902.780  0.500  1066.548189  107.098969  2.365335  0.262443  28181.956984  29964.664848  28366.568248  27713.021634
  5905.410  5905.400  0.500  1074.312258  106.820628  2.371786  0.263751  28424.103275  29852.618206  28416.648649  28065.340387
  5908.068  5908.050  0.500  1077.053864  106.452514  2.376138  0.265003  28390.136272  29561.416193  28749.212200  27954.326769
  5910.723  5910.710  0.500  1071.049669  105.931779  2.377202  0.265908  28264.263922  29256.178667  28212.688555  27725.066026
  5913.400  5913.390  0.500  1077.360855  104.792094  2.363337  0.265288  27939.443009  29369.236783  28205.503084  27384.716816
  5916.102  5916.090  0.500  1088.794833  91.727110  2.078107  0.234309  24828.051451  25947.673492  25004.991378  24091.287192
  5918.817  5918.810  0.500  1044.396336  105.898757  2.410267  0.271970  28261.652606  25947.673492  28382.608838  28008.338709
  5921.571  5921.550  0.500  1078.972809  106.736123  2.441560  0.276364  28426.683148  29988.542430  28781.902938  27968.245399
  5924.314  5924.300  0.500  1079.432375  106.098722  2.439413  0.277171  28537.767752  29652.483074  28556.929307  27779.215466
  5927.102  5927.080  0.500  1081.498900  105.276054  2.432042  0.277261  28075.070266  29637.617071  28422.977090  27720.272537
  5929.895  5929.870  0.500  1083.700784  104.455463  2.425191  0.277495  28075.070266  29302.108101  28213.404728  27607.884239
  5932.703  5932.690  0.500  1084.074279  105.726080  2.466958  0.283108  28536.424805  29681.450944  28370.672070  28026.375856
  5935.541  5935.520  0.500  1086.940472  105.339319  2.470761  0.284270  28274.092245  29735.499485  28482.701589  28005.276010
  5938.384  5938.370  0.500  1089.177163  104.622311  2.465836  0.284703  28240.813550  29581.397708  28379.871169  27750.149937
  5941.272  5941.250  0.500  1100.984049  103.455934  2.449660  0.283803  28204.632570  29535.249556  28313.442368  27850.008924
  5944.138  5944.140  0.500  1100.461240  97.944512  2.331536  0.270783  26773.854818  28257.918768  26745.004657  26007.361304
  5947.043  5947.050  0.500  1104.535785  104.641216  2.502238  0.291534  28148.906536  30025.915099  28917.297651  28487.848471
  5949.962  5949.970  0.500  1093.659850  104.767712  2.518125  0.294232  28607.286515  29876.759368  28279.798246  27816.396419
  5952.926  5952.920  0.500  1108.708171  104.270110  2.518857  0.295402  28778.559110  30103.958312  28736.212319  27986.393774
  5955.882  5955.890  0.500  1111.510618  103.821644  2.523259  0.296753  28363.665229  29936.733886  28676.846976  28421.613188
  5958.859  5958.870  0.500  1109.361864  103.445866  2.529191  0.298243  28232.929759  29899.649620  28659.978933  27966.340777
  5961.872  5961.880  0.500  1114.365693  103.057941  2.534121  0.299716  28232.929759  30080.967170  28573.949398  27956.387379
  5964.893  5964.900  0.500  1112.642627  102.657734  2.539106  0.301149  28221.749995  29531.353725  28622.039461  27846.228129
  5967.943  5967.950  0.500  1117.369510  102.311472  2.545278  0.302835  28214.164503  30048.821330  28269.563889  27787.169397
  5971.002  5971.010  0.500  1116.020040  101.915663  2.550203  0.304529  28266.018797  29575.327059  28275.588625  27622.988228
  5974.075  5974.090  0.500  1116.466022  101.501894  2.555116  0.306241  28006.729831  29459.286567  28214.475888  27642.923058
  5977.181  5977.190  0.500  1123.620395  101.027638  2.558268  0.307651  27804.777575  29577.266017  28209.503309  27925.167319
  5980.304  5980.310  0.500  1127.372713  100.499747  2.559618  0.308967  27914.314049  29474.119396  28243.372727  27668.866062
  5983.446  5983.450  0.500  1125.532750  99.846982  2.557204  0.309690  27725.240813  29212.880122  28143.306276  27299.620885
  5986.606  5986.600  0.500  1117.828908  98.539322  2.535767  0.308175  27382.999359  28778.464828  27376.693047  26611.945975
  5989.773  5989.780  0.500  1286.992692  82.881757  2.146122  0.262194  27382.999359  28778.464828  27376.693047  23130.058511
  5992.960  5992.970  0.500  1132.993578  100.774303  2.624777  0.320891  28482.756431  29721.362353  28195.478892  27777.040590
  5996.203  5996.190  0.500  1134.638755  100.075864  2.620837  0.321479  27969.091491  29578.342034  28189.449292  27813.070435
  5999.432  5999.420  0.500  1138.768133  99.451335  2.619613  0.322045  27969.091491  29578.342034  28242.641315  27461.936204
  6002.663  6002.670  0.500  1136.719753  98.917493  2.620492  0.323442  27693.822899  29443.269615  27770.423473  27533.951838
  6005.938  6005.950  0.500  1138.247852  98.429462  2.624167  0.324999  27694.823982  29028.708886  28019.140469  27294.450065
  6009.227  6009.240  0.500  1141.164960  97.940625  2.626784  0.326451  27485.841183  29208.076125  27831.947053  27240.544859
  6012.542  6012.550  0.500  1141.153659  97.487073  2.629949  0.327934  27457.046751  28917.552583  27529.626546  27343.503809
  6015.861  6015.870  0.500  1150.079380  97.053216  2.634317  0.329650  27392.930249  29291.807324  27580.726573  27353.438322
  6019.226  6019.220  0.500  1149.549955  96.625025  2.639770  0.331446  27287.827749  28533.222474  27667.725686  27586.516768
  6022.573  6022.590  0.500  1150.627347  96.163290  2.642699  0.332899  27456.010113  28617.234385  27586.678931  26988.188318
  6025.961  6025.970  0.500  1155.988612  95.734023  2.644752  0.334639  27413.294990  28909.578649  27433.488303  26911.078318
  6029.393  6029.380  0.500  1162.179483  95.306739  2.647685  0.336007  27413.294990  28909.578649  27604.670524  26835.992639
  6032.795  6032.800  0.500  1159.191370  94.864150  2.650921  0.337792  27406.817709  28550.223693  27401.714240  26606.947823
  6036.239  6036.250  0.500  1161.696642  94.407087  2.653585  0.339632  27000.123832  28379.003270  27510.396234  26782.872569
  6039.696  6039.710  0.500  1170.541657  93.922939  2.657982  0.341057  27019.167812  28453.124258  27412.385928  27056.035079
  6043.189  6043.190  0.500  1161.756108  93.496559  2.662481  0.342989  26678.472388  28157.925813  27151.084505  26632.715947
  6046.679  6046.690  0.500  1162.380246  93.066913  2.668641  0.344956  26792.421499  28198.004863  26863.145482  26325.569926
  6050.204  6050.210  0.500  1174.508344  92.591929  2.670995  0.346641  27157.728072  28057.761188  27028.964626  26505.539653
  6053.734  6053.750  0.500  1178.782379  92.096581  2.674471  0.348063  27157.728072  27869.593913  27028.964626  26505.539653
  6057.292  6057.300  0.500  1172.146677  91.508492  2.674187  0.349452  26501.844664  27839.415249  26645.735797  26274.378692
  6060.869  6060.880  0.500  1177.410505  90.937863  2.674955  0.350618  26556.866646  27927.443376  26556.679244  26030.206023
  6064.469  6064.480  0.500  1181.024541  90.422560  2.678324  0.352024  26392.891711  27684.509451  26478.560600  26235.300901
  6068.076  6068.090  0.500  1184.739290  89.947858  2.682176  0.354012  26392.891711  27705.245345  26431.520194  26035.103904
  6071.715  6071.720  0.500  1184.296219  89.498981  2.686127  0.355815  25928.597590  27746.419120  26385.300212  25932.988292
  6075.379  6075.380  0.500  1188.886920  89.026724  2.691202  0.357842  26022.525600  27587.056295  26197.208749  26035.916886
  6079.044  6079.050  0.500  1185.309866  88.546503  2.693918  0.359386  25763.106103  27470.024821  26215.245403  25506.667147
  6082.723  6082.740  0.500  1193.678643  88.043671  2.692982  0.360787  25816.821029  27464.098008  26206.237887  25608.692364
  6086.445  6086.450  0.500  1195.687358  87.550689  2.694888  0.362288  26336.246368  27233.751002  25566.703790  25546.550565
  6090.167  6090.180  0.500  1193.909170  87.084683  2.698034  0.364166  25553.321582  27353.770572  25776.782883  25287.327089
  6093.917  6093.920  0.500  1192.383396  86.597563  2.700116  0.365915  25449.817333  26768.554257  25812.791812  25226.333414
  6097.673  6097.690  0.500  1200.674320  86.083895  2.701762  0.367458  25647.636086  26921.382619  25583.563803  25206.139366
  6101.465  6101.480  0.500  1202.908380  85.585437  2.703604  0.369208  25481.347840  26797.513316  25664.531019  25008.047358
  6105.269  6105.280  0.500  1204.557550  85.055391  2.705174  0.370916  25138.941783  26794.421996  25363.511179  25157.238404
  6109.096  6109.110  0.500  1198.741968  84.502811  2.706423  0.372561  25020.776043  26483.233009  25140.201784  24652.854649
  6112.940  6112.950  0.500  1207.450623  83.989267  2.708314  0.373922  25211.873923  26391.103183  25285.265318  24524.650462
  6116.799  6116.810  0.500  1213.333110  83.450472  2.709637  0.375341  25055.334438  26235.908723  25225.193442  24736.784623
  6120.677  6120.690  0.500  1209.745952  82.907434  2.710960  0.376716  24905.875321  26035.689144  24826.846065  24528.522457
  6124.578  6124.590  0.500  1207.852412  82.341639  2.711443  0.378356  24625.577127  25825.688807  24671.769526  24333.511717
  6128.494  6128.510  0.500  1215.177305  81.768702  2.710896  0.379540  24625.577127  25825.688807  24807.874702  24104.330604
  6132.430  6132.450  0.500  1213.069047  81.193480  2.709878  0.380935  24237.000956  25576.389843  24886.860319  23793.046452
  6136.398  6136.410  0.500  1218.821094  80.614682  2.709305  0.382358  24176.672053  25426.339403  24685.715029  23966.147874
  6140.363  6140.380  0.500  1221.199317  79.973830  2.705499  0.383051  24013.121183  25426.339403  24685.715029  23538.810630
  6144.361  6144.380  0.500  1214.236294  79.311290  2.698518  0.383693  23859.671387  25034.043879  23791.024016  23617.907000
  6148.376  6148.390  0.500  1216.631718  78.632607  2.688489  0.383478  23859.671387  25032.834272  23503.838915  23270.578889
  6152.413  6152.430  0.500  1210.080591  77.838111  2.667045  0.382146  23338.156131  24546.861657  23230.773969  23074.595592
