# XDI/1.0 BlueSky/1.10.0 BMM/2023-1.0-py310-tiled
# Beamline.name: BMM (06BM) -- Beamline for Materials Measurement (NIST)
# Beamline.xray_source: NSLS-II three-pole wiggler
# Beamline.collimation: paraboloid mirror, 5 nm Rh on 30 nm Pt
# Beamline.focusing: not in use
# Beamline.harmonic_rejection: flat mirror, Pt stripe, pitch = 7.0 mrad relative to beam
# Beamline.software: Bluesky 1.10.0, Ophyd 1.7.0, DataBroker 2.0.0b13, Python 3.10.8, 2023-1.0-py310-tiled
# Detector.I0: 10 cm N2
# Detector.I1: 25 cm N2
# Detector.I2: 25 cm N2
# Element.symbol: As
# Element.edge: K
# Element.reference: As
# Element.reference_material: As2O3
# Facility.name: NSLS-II
# Facility.energy: 3.0
# Facility.current: 400.6
# Facility.mode: top-off
# Facility.GUP: 301027
# Facility.SAF: 310583
# Facility.cycle: 2023-2
# Mono.name: Si(111)
# Mono.d_spacing: 3.1351860
# Mono.encoder_resolution: 0.0000050 deg/ct
# Mono.angle_offset: 16.0754326 deg
# Mono.scan_mode: pseudo channel cut
# Mono.scan_type: step
# Mono.direction: forward in energy
# Sample.name: As2O3
# Sample.prep: powder on tape
# Sample.x: 109.138 mm
# Sample.y: 153.150 mm
# Sample.SDD_position: 205.000 mm
# Scan.experimenters: Bruce Ravel
# Scan.edge_energy: 11866.7
# Scan.start_time: 2023-05-28T19:18:48
# Scan.end_time: 2023-05-28T19:27:29
# Scan.transient_id: 78945
# Scan.uid: 7a256c1f-9904-47eb-8805-9fe0da8c542d
# Scan.plot_hint: ln(It/Ir)  --  ln($6/$7)
# Column.1: energy eV
# Column.2: requested_energy eV
# Column.3: measurement_time seconds
# Column.4: xmu 
# Column.5: I0 nA
# Column.6: It nA
# Column.7: Ir nA
# ///////////
# Welcome to BMM
# -----------
# energy  requested_energy  measurement_time  xmu  I0  It  Ir
  11666.678  11666.700  0.500  0.423532  65.426166  109.702531  71.825531
  11676.763  11676.700  0.500  0.422584  65.308982  109.556264  71.797835
  11686.794  11686.700  0.500  0.421497  65.165683  109.350417  71.740884
  11696.766  11696.700  0.500  0.420487  65.022801  109.168369  71.693819
  11706.719  11706.700  0.500  0.419559  64.885264  108.979421  71.636158
  11716.713  11716.700  0.500  0.418638  64.743564  108.787625  71.575967
  11726.719  11726.700  0.500  0.417705  64.587509  108.556685  71.490702
  11736.736  11736.700  0.500  0.416680  64.365421  108.224760  71.345193
  11746.722  11746.700  0.500  0.415724  64.032328  107.701655  71.068249
  11756.732  11756.700  0.500  0.414901  63.963260  107.629568  71.079209
  11766.741  11766.700  0.500  0.414024  64.005983  107.753351  71.223358
  11776.749  11776.700  0.500  0.413137  63.562156  107.042422  70.816261
  11786.732  11786.700  0.500  0.412382  63.732072  107.372028  71.087917
  11796.756  11796.700  0.500  0.411652  63.581039  107.156112  70.996786
  11806.737  11806.700  0.500  0.411133  63.322010  106.759811  70.770952
  11816.748  11816.700  0.500  0.410886  63.269105  106.702902  70.750689
  11826.727  11826.700  0.500  0.410978  63.131139  106.501413  70.610573
  11836.729  11836.700  0.500  0.411880  63.005445  106.335790  70.437223
  11838.674  11838.700  0.500  0.412284  62.985570  106.307042  70.389723
  11840.662  11840.700  0.500  0.412782  62.956514  106.274726  70.333343
  11842.670  11842.700  0.500  0.413451  62.929610  106.240684  70.263750
  11844.666  11844.700  0.500  0.414160  62.897063  106.191140  70.181245
  11846.675  11846.700  0.500  0.415091  62.853134  106.124490  70.071914
  11848.672  11848.700  0.500  0.416317  62.681763  105.839763  69.798294
  11850.688  11850.700  0.500  0.417895  62.812542  106.075273  69.843302
  11852.681  11852.700  0.500  0.419876  62.780640  106.028171  69.674123
  11854.668  11854.700  0.500  0.422468  62.680655  105.859272  69.383082
  11856.680  11856.700  0.500  0.426162  62.633315  105.791535  69.082977
  11856.956  11857.000  0.500  0.426775  62.658655  105.843559  69.074610
  11857.262  11857.300  0.500  0.427444  62.676740  105.870420  69.045951
  11857.568  11857.600  0.500  0.428298  62.676172  105.863969  68.982764
  11857.855  11857.900  0.500  0.429006  62.652784  105.819778  68.905171
  11858.161  11858.200  0.500  0.429814  62.590086  105.718994  68.783940
  11858.467  11858.500  0.500  0.430679  62.509675  105.588899  68.639893
  11858.767  11858.800  0.500  0.431549  62.434809  105.460747  68.496976
  11859.055  11859.100  0.500  0.432582  62.375159  105.364402  68.363778
  11859.379  11859.400  0.500  0.433756  62.330670  105.289129  68.234759
  11859.679  11859.700  0.500  0.434961  62.316974  105.276489  68.144392
  11859.967  11860.000  0.500  0.435999  62.334397  105.303545  68.091176
  11860.273  11860.300  0.500  0.437329  62.376940  105.369899  68.043535
  11860.579  11860.600  0.500  0.438718  62.435769  105.464104  68.009863
  11860.872  11860.900  0.500  0.440084  62.493537  105.566772  67.983158
  11861.172  11861.200  0.500  0.441743  62.528123  105.631153  67.911827
  11861.485  11861.500  0.500  0.443482  62.520134  105.625836  67.790458
  11861.779  11861.800  0.500  0.445227  62.484952  105.561780  67.631194
  11862.072  11862.100  0.500  0.447099  62.441001  105.487186  67.457024
  11862.373  11862.400  0.500  0.449088  62.414098  105.441179  67.293596
  11862.685  11862.700  0.500  0.451339  62.401285  105.424063  67.131382
  11862.973  11863.000  0.500  0.453571  62.418758  105.450851  66.998737
  11863.261  11863.300  0.500  0.456107  62.453763  105.515003  66.869699
  11863.579  11863.600  0.500  0.459039  62.494977  105.589831  66.721204
  11863.885  11863.900  0.500  0.462009  62.525008  105.634659  66.551592
  11864.167  11864.200  0.500  0.465243  62.553400  105.679827  66.365053
  11864.473  11864.500  0.500  0.469022  62.570489  105.710481  66.133956
  11864.773  11864.800  0.500  0.473102  62.568638  105.719420  65.870240
  11865.067  11865.100  0.500  0.477606  62.566188  105.717942  65.573282
  11865.380  11865.400  0.500  0.482823  62.563789  105.712401  65.228693
  11865.686  11865.700  0.500  0.488745  62.558508  105.703439  64.838013
  11865.974  11866.000  0.500  0.494923  62.553857  105.693481  64.432644
  11866.287  11866.300  0.500  0.502168  62.549862  105.686768  63.963437
  11866.593  11866.600  0.500  0.510441  62.541059  105.674314  63.428965
  11866.875  11866.900  0.500  0.519451  62.539473  105.675898  62.860996
  11867.200  11867.200  0.500  0.530724  62.530500  105.662288  62.148364
  11867.494  11867.500  0.500  0.542646  62.527849  105.658402  61.409548
  11867.788  11867.800  0.500  0.556437  62.521757  105.655438  60.566761
  11868.101  11868.100  0.500  0.572821  62.512122  105.636725  59.571945
  11868.383  11868.400  0.500  0.590418  62.510054  105.633220  58.530886
  11868.708  11868.700  0.500  0.612791  62.501327  105.619117  57.228313
  11868.990  11869.000  0.500  0.636139  62.488753  105.607485  55.901421
  11869.296  11869.300  0.500  0.664812  62.480015  105.594603  54.314708
  11869.597  11869.600  0.500  0.696592  62.451189  105.541146  52.589127
  11869.897  11869.900  0.500  0.733930  62.402745  105.459971  50.622762
  11870.204  11870.200  0.500  0.776937  62.346259  105.364837  48.448040
  11870.486  11870.500  0.500  0.822585  62.307407  105.293214  46.254747
  11870.798  11870.800  0.500  0.872368  62.281007  105.265151  43.996704
  11871.087  11871.100  0.500  0.920546  62.295480  105.289040  41.936778
  11871.393  11871.400  0.500  0.970869  62.329833  105.348200  39.901025
  11871.682  11871.700  0.500  1.010818  62.366859  105.412351  38.361799
  11871.994  11872.000  0.500  1.045792  62.399682  105.471804  37.064186
  11872.289  11872.300  0.500  1.067628  62.417535  105.515251  36.278568
  11872.589  11872.600  0.500  1.078353  62.433479  105.538402  35.899434
  11872.878  11872.900  0.500  1.077825  62.434896  105.539855  35.918885
  11873.184  11873.200  0.500  1.068326  62.436246  105.541665  36.262336
  11873.473  11873.500  0.500  1.053412  62.431842  105.539387  36.806400
  11873.798  11873.800  0.500  1.035451  62.424380  105.530789  37.470402
  11874.099  11874.100  0.500  1.018436  62.421684  105.522092  38.110277
  11874.399  11874.400  0.500  1.002906  62.414804  105.505604  38.700724
  11874.700  11874.700  0.500  0.989688  62.408781  105.501517  39.214133
  11874.994  11875.000  0.500  0.978798  62.400121  105.494383  39.640816
  11875.301  11875.300  0.500  0.969667  62.394459  105.482130  39.999812
  11875.602  11875.600  0.500  0.961833  62.390343  105.472413  40.310663
  11875.909  11875.900  0.500  0.953542  62.385517  105.458546  40.640955
  11876.191  11876.200  0.500  0.945222  62.381234  105.450796  40.977485
  11876.517  11876.500  0.500  0.934527  62.374558  105.439204  41.413526
  11876.805  11876.800  0.500  0.923932  62.370816  105.447708  41.858027
  11877.112  11877.100  0.500  0.911454  62.359364  105.434139  42.378126
  11877.394  11877.400  0.500  0.898919  62.356522  105.419514  42.906746
  11877.701  11877.700  0.500  0.885459  62.348834  105.408368  43.483547
  11877.996  11878.000  0.500  0.873429  62.345980  105.403901  44.007975
  11878.297  11878.300  0.500  0.861059  62.338579  105.390385  44.550030
  11878.573  11878.600  0.500  0.851199  62.331897  105.381647  44.987713
  11878.905  11878.900  0.500  0.841174  62.326635  105.371821  45.436752
  11879.187  11879.200  0.500  0.833966  62.322412  105.367365  45.763502
  11879.482  11879.500  0.500  0.828312  62.316122  105.356088  46.018044
  11879.777  11879.800  0.500  0.824580  62.311850  105.349999  46.187465
  11880.090  11880.100  0.500  0.822651  62.306067  105.340890  46.272637
  11880.391  11880.400  0.500  0.823024  62.296092  105.328699  46.250012
  11880.686  11880.700  0.500  0.825474  62.291774  105.314069  46.130429
  11880.981  11881.000  0.500  0.829791  62.285901  105.307999  45.929092
  11881.312  11881.300  0.500  0.836596  62.276767  105.294956  45.611954
  11881.614  11881.600  0.500  0.843810  62.267390  105.275830  45.275852
  11881.896  11881.900  0.500  0.851521  62.261434  105.272773  44.926765
  11882.203  11882.200  0.500  0.859234  62.253724  105.261181  44.576679
  11882.498  11882.500  0.500  0.866045  62.242199  105.238152  44.264419
  11882.793  11882.800  0.500  0.871639  62.227722  105.220354  44.010041
  11883.100  11883.100  0.500  0.875471  62.205286  105.184812  43.826925
  11883.402  11883.400  0.500  0.877566  62.159230  105.102687  43.701026
  11883.703  11883.700  0.500  0.877810  62.051459  104.917703  43.613466
  11884.004  11884.000  0.500  0.876701  61.906988  104.671496  43.559431
  11884.299  11884.300  0.500  0.874357  61.915808  104.702763  43.674687
  11884.600  11884.600  0.500  0.871151  61.792288  104.498212  43.729323
  11884.889  11884.900  0.500  0.867614  61.724504  104.381603  43.835296
  11885.190  11885.200  0.500  0.863731  61.713854  104.358632  43.996178
  11885.479  11885.500  0.500  0.860442  61.754244  104.426412  44.169781
  11885.799  11885.800  0.500  0.857095  61.830654  104.562221  44.375473
  11886.076  11886.100  0.500  0.854694  61.933705  104.734567  44.555493
  11886.383  11886.400  0.500  0.852498  62.066205  104.961024  44.749975
  11886.678  11886.700  0.500  0.850840  62.179213  105.136624  44.899227
  11886.998  11887.000  0.500  0.849349  62.252217  105.271309  45.023828
  11887.287  11887.300  0.500  0.848145  62.290645  105.340204  45.107578
  11887.631  11887.600  0.500  0.846855  62.307718  105.365733  45.176761
  11887.896  11887.900  0.500  0.845882  62.305132  105.373529  45.224054
  11888.172  11888.200  0.500  0.844669  62.306993  105.366805  45.276085
  11888.455  11888.500  0.500  0.843407  62.305738  105.368481  45.333972
  11888.757  11888.800  0.500  0.841787  62.281869  105.335125  45.393076
  11889.046  11889.100  0.500  0.839997  62.255661  105.293901  45.456626
  11889.470  11889.400  0.500  0.836740  62.240854  105.259766  45.590150
  11889.630  11889.700  0.500  0.835264  62.208380  105.218266  45.639462
  11889.944  11890.000  0.500  0.832218  62.209935  105.209964  45.775101
  11890.239  11890.300  0.500  0.829428  62.202974  105.206091  45.901278
  11890.547  11890.600  0.500  0.826544  62.199235  105.196606  46.029731
  11890.861  11890.900  0.500  0.824031  62.193285  105.189274  46.142290
  11891.150  11891.200  0.500  0.821954  62.188888  105.176399  46.232592
  11891.452  11891.500  0.500  0.820023  62.182053  105.168204  46.318340
  11891.667  11891.700  0.500  0.818868  62.177229  105.162621  46.369400
  11892.670  11892.690  0.500  0.813717  62.161095  105.135978  46.597060
  11893.655  11893.690  0.500  0.805558  62.144544  105.115596  46.969713
  11894.689  11894.710  0.500  0.794846  62.128691  105.092537  47.465133
  11895.730  11895.760  0.500  0.786880  62.113845  105.072488  47.835595
  11896.790  11896.820  0.500  0.783945  62.097196  105.040660  47.961669
  11897.874  11897.900  0.500  0.783571  62.070984  105.015131  47.967957
  11898.995  11899.000  0.500  0.782739  62.041541  104.960501  47.982906
  11900.117  11900.120  0.500  0.781336  61.958915  104.818498  47.985301
  11901.257  11901.260  0.500  0.779695  61.517555  104.075190  47.723262
  11902.416  11902.410  0.500  0.777769  61.412621  103.903729  47.736490
  11903.581  11903.590  0.500  0.774981  61.827872  104.611642  48.195892
  11904.765  11904.780  0.500  0.771755  61.959128  104.832958  48.453935
  11905.981  11906.000  0.500  0.768841  61.956376  104.836822  48.597124
  11907.202  11907.230  0.500  0.766795  61.944264  104.833708  48.695176
  11908.461  11908.480  0.500  0.764886  61.928999  104.809038  48.776756
  11909.745  11909.750  0.500  0.763440  61.906046  104.772910  48.830525
  11911.042  11911.040  0.500  0.764322  61.890521  104.742684  48.773366
  11912.357  11912.350  0.500  0.767439  61.869014  104.718832  48.610499
  11913.679  11913.680  0.500  0.771921  61.841354  104.678525  48.374494
  11915.032  11915.030  0.500  0.777050  61.783973  104.589364  48.086031
  11916.397  11916.400  0.500  0.781602  61.332013  103.824180  47.517466
  11917.757  11917.780  0.500  0.784811  61.230737  103.661913  47.291176
  11919.161  11919.190  0.500  0.787039  61.684170  104.433744  47.537282
  11920.608  11920.610  0.500  0.788527  61.749345  104.556807  47.522489
  11922.036  11922.050  0.500  0.790109  61.738743  104.527679  47.434155
  11923.515  11923.510  0.500  0.792953  61.718331  104.509152  47.291077
  11925.007  11924.990  0.500  0.796496  61.700091  104.489789  47.115097
  11926.492  11926.490  0.500  0.800362  61.681185  104.460903  46.920329
  11928.009  11928.010  0.500  0.804331  61.655634  104.428059  46.719771
  11929.557  11929.550  0.500  0.807516  61.631527  104.387927  46.553322
  11931.087  11931.110  0.500  0.809430  61.608486  104.345936  46.445585
  11932.674  11932.680  0.500  0.810709  61.558501  104.277502  46.355810
  11934.279  11934.280  0.500  0.812445  61.002117  103.344338  45.861289
  11935.916  11935.890  0.500  0.813835  61.106000  103.513138  45.872410
  11937.534  11937.530  0.500  0.814323  61.468992  104.140107  46.127731
  11939.185  11939.180  0.500  0.814429  61.471317  104.147717  46.126221
  11940.848  11940.850  0.500  0.814808  61.451100  104.115260  46.094366
  11942.548  11942.540  0.500  0.815972  61.430196  104.087757  46.028580
  11944.237  11944.250  0.500  0.817055  61.407661  104.048520  45.961424
  11945.982  11945.980  0.500  0.817924  61.375912  104.012630  45.905638
  11947.746  11947.730  0.500  0.817897  61.356428  103.982023  45.893398
  11949.499  11949.490  0.500  0.816919  61.328639  103.938807  45.919196
  11951.289  11951.280  0.500  0.814816  61.302929  103.915363  46.005478
  11953.086  11953.080  0.500  0.812149  61.281036  103.876042  46.110919
  11954.902  11954.910  0.500  0.809919  61.254915  103.839120  46.197391
  11956.756  11956.750  0.500  0.808359  61.222185  103.796234  46.250438
  11958.623  11958.610  0.500  0.807108  61.197734  103.761223  46.292689
  11960.503  11960.490  0.500  0.805643  61.167613  103.703820  46.334917
  11962.409  11962.390  0.500  0.803934  61.142911  103.666225  46.397349
  11964.328  11964.310  0.500  0.802269  61.110362  103.631737  46.459210
  11966.260  11966.250  0.500  0.800858  61.079014  103.592453  46.507157
  11968.205  11968.210  0.500  0.799866  61.052881  103.549799  46.534174
  11970.175  11970.180  0.500  0.798610  61.025424  103.507048  46.573418
  11972.190  11972.180  0.500  0.797224  60.986882  103.456358  46.615145
  11974.193  11974.190  0.500  0.796023  60.959320  103.408111  46.649435
  11976.222  11976.220  0.500  0.795011  60.928336  103.368381  46.678698
  11978.270  11978.280  0.500  0.793860  60.896934  103.326058  46.713349
  11980.356  11980.350  0.500  0.792448  60.864439  103.269926  46.753928
  11982.443  11982.440  0.500  0.790794  60.835376  103.234569  46.815264
  11984.537  11984.550  0.500  0.788916  60.803216  103.184531  46.880543
  11986.682  11986.680  0.500  0.787161  60.773589  103.137325  46.941427
  11988.828  11988.820  0.500  0.785891  60.742230  103.089076  46.979069
  11991.006  11990.990  0.500  0.785015  60.709277  103.041399  46.998485
  11993.203  11993.180  0.500  0.784496  60.677640  102.995475  47.001950
  11995.376  11995.380  0.500  0.783989  60.647332  102.946108  47.003260
  11997.619  11997.600  0.500  0.783709  60.610196  102.898164  46.994495
  11999.856  11999.850  0.500  0.783979  60.583248  102.863963  46.966228
  12002.132  12002.110  0.500  0.784619  60.548484  102.819980  46.916098
  12004.377  12004.390  0.500  0.785598  60.517087  102.772586  46.848582
  12006.699  12006.690  0.500  0.786606  60.485522  102.716579  46.775858
  12009.027  12009.010  0.500  0.787853  60.457396  102.680693  46.701250
  12011.376  12011.350  0.500  0.789185  60.427650  102.639635  46.620430
  12013.713  12013.700  0.500  0.790317  60.391091  102.591187  46.545704
  12016.069  12016.080  0.500  0.791235  60.361602  102.542160  46.480781
  12018.490  12018.470  0.500  0.792129  60.503027  102.794681  46.553604
  12020.917  12020.890  0.500  0.792634  60.482442  102.769856  46.518879
  12023.308  12023.320  0.500  0.793378  60.454900  102.732485  46.467375
  12025.769  12025.770  0.500  0.793893  60.428154  102.689597  46.424076
  12028.263  12028.250  0.500  0.794196  60.396173  102.645592  46.390102
  12030.758  12030.740  0.500  0.794538  60.361942  102.605003  46.355890
  12033.253  12033.250  0.500  0.794760  60.321160  102.539702  46.316132
  12035.769  12035.770  0.500  0.794970  60.288624  102.485135  46.281753
  12038.330  12038.320  0.500  0.794703  60.246209  102.431401  46.269820
  12040.911  12040.890  0.500  0.794135  60.210512  102.374350  46.270340
  12043.481  12043.470  0.500  0.793488  60.157516  102.292339  46.263204
  12046.089  12046.080  0.500  0.792555  59.724063  101.558330  45.974111
  12048.724  12048.700  0.500  0.791387  58.811369  100.024395  45.332633
  12051.379  12051.350  0.500  0.790424  59.979358  102.001741  46.273332
  12054.023  12054.010  0.500  0.789442  59.986936  102.038940  46.335682
  12056.705  12056.690  0.500  0.788287  59.956398  101.999268  46.371207
  12059.402  12059.390  0.500  0.787246  59.920988  101.947875  46.396110
  12062.125  12062.110  0.500  0.786508  59.885729  101.895779  46.406634
  12064.843  12064.850  0.500  0.786013  59.845266  101.841340  46.404803
  12067.626  12067.600  0.500  0.785578  59.802681  101.778000  46.396112
  12070.391  12070.380  0.500  0.785362  59.763492  101.711749  46.375946
  12073.164  12073.170  0.500  0.785030  59.725022  101.652307  46.364250
  12075.988  12075.990  0.500  0.784648  59.680476  101.595959  46.356241
  12078.846  12078.820  0.500  0.784006  59.638019  101.528146  46.355047
  12081.686  12081.670  0.500  0.783234  59.600829  101.472035  46.365191
  12084.547  12084.550  0.500  0.782453  59.560988  101.412405  46.374173
  12087.460  12087.440  0.500  0.781697  59.514696  101.350401  46.380843
  12090.368  12090.350  0.500  0.780936  59.440019  101.226147  46.359260
  12093.271  12093.270  0.500  0.780404  59.378310  101.144507  46.346525
  12096.232  12096.220  0.500  0.779933  59.397383  101.186370  46.387525
  12099.221  12099.190  0.500  0.779556  59.358805  101.130415  46.379380
  12102.160  12102.170  0.500  0.779084  59.316457  101.071283  46.374126
  12105.183  12105.180  0.500  0.778577  59.281122  101.018874  46.373582
  12108.234  12108.200  0.500  0.777745  59.234191  100.946168  46.378815
  12111.254  12111.250  0.500  0.776939  59.189821  100.878457  46.385081
  12114.321  12114.310  0.500  0.776231  59.150164  100.829404  46.395361
  12117.408  12117.390  0.500  0.775386  59.107290  100.760073  46.402621
  12120.510  12120.490  0.500  0.774808  59.061705  100.692327  46.398226
  12123.613  12123.610  0.500  0.774239  59.013556  100.624927  46.393558
  12126.775  12126.750  0.500  0.773838  58.951965  100.525946  46.366534
  12129.907  12129.900  0.500  0.773679  58.812196  100.301347  46.270297
  12133.099  12133.080  0.500  0.773442  58.888032  100.440035  46.345250
  12136.292  12136.270  0.500  0.773492  58.844040  100.369285  46.310291
  12139.493  12139.490  0.500  0.773587  58.793883  100.303102  46.275359
  12142.728  12142.720  0.500  0.773906  58.751175  100.232807  46.228179
  12145.997  12145.970  0.500  0.774433  58.695734  100.165607  46.172827
  12149.255  12149.250  0.500  0.774833  58.648411  100.089276  46.119226
  12152.560  12152.540  0.500  0.775159  58.598267  100.004199  46.064992
  12155.860  12155.850  0.500  0.775475  58.550568  99.927583  46.015132
  12159.168  12159.170  0.500  0.775463  58.487252  99.840039  45.975396
  12162.530  12162.520  0.500  0.775220  58.224231  99.408176  45.787634
  12165.893  12165.890  0.500  0.774720  58.405622  99.718978  45.953786
  12169.285  12169.270  0.500  0.774042  58.350494  99.641767  45.949321
  12172.704  12172.680  0.500  0.773069  58.304784  99.573434  45.962509
  12176.099  12176.100  0.500  0.771989  58.243577  99.480629  45.969320
  12179.554  12179.550  0.500  0.770875  58.199176  99.413062  45.989302
  12183.024  12183.010  0.500  0.769717  58.150402  99.345123  46.011100
  12186.502  12186.490  0.500  0.768594  58.100048  99.268428  46.027234
  12189.996  12189.990  0.500  0.767485  58.049093  99.185140  46.039646
  12193.504  12193.510  0.500  0.766698  57.992736  99.102115  46.037338
  12197.067  12197.050  0.500  0.765948  57.940198  99.034944  46.040669
  12200.612  12200.600  0.500  0.765365  57.677554  98.590196  45.860633
  12204.165  12204.180  0.500  0.764907  57.853367  98.897479  46.024619
  12207.792  12207.780  0.500  0.764529  57.807444  98.833411  46.012184
  12211.383  12211.390  0.500  0.764212  57.748494  98.745963  45.986060
  12215.034  12215.020  0.500  0.763984  57.703398  98.676656  45.964273
  12218.693  12218.680  0.500  0.763785  57.655387  98.604761  45.939947
  12222.362  12222.350  0.500  0.763638  57.603150  98.543525  45.918127
  12226.052  12226.040  0.500  0.763426  57.547422  98.452114  45.885269
  12229.751  12229.750  0.500  0.763061  57.495980  98.369411  45.863484
  12233.484  12233.480  0.500  0.762574  57.126033  97.747115  45.595538
  12237.240  12237.220  0.500  0.762081  57.073343  97.665277  45.579808
  12240.998  12240.990  0.500  0.761338  57.306363  98.089076  45.811621
  12244.804  12244.780  0.500  0.760497  57.272418  98.043229  45.828749
  12248.580  12248.580  0.500  0.759628  57.222498  97.967637  45.833211
  12252.443  12252.410  0.500  0.758565  57.165121  97.872618  45.837460
  12256.269  12256.250  0.500  0.757646  56.949651  97.522825  45.715625
  12260.111  12260.110  0.500  0.756595  57.038615  97.679751  45.837333
  12264.014  12263.990  0.500  0.755711  55.671481  95.357322  44.787076
  12267.881  12267.890  0.500  0.754981  56.880063  97.433799  45.795799
  12271.822  12271.810  0.500  0.754238  56.840091  97.376574  45.802894
  12275.785  12275.750  0.500  0.753649  56.838706  97.387698  45.835144
  12279.705  12279.710  0.500  0.753286  56.772943  97.289666  45.805615
  12283.713  12283.680  0.500  0.753016  56.555542  96.932910  45.649993
  12287.684  12287.680  0.500  0.752798  56.610346  97.033457  45.707278
  12291.710  12291.690  0.500  0.752483  55.594750  95.304526  44.907031
  12295.759  12295.730  0.500  0.752548  56.498793  96.868615  45.641055
  12299.791  12299.780  0.500  0.752473  56.380463  96.678223  45.554764
  12303.878  12303.850  0.500  0.752380  56.415388  96.752652  45.594083
  12307.981  12307.940  0.500  0.752165  56.355204  96.658032  45.559293
  12312.054  12312.050  0.500  0.752077  56.296745  96.579214  45.526122
  12316.216  12316.180  0.500  0.751553  56.225664  96.470871  45.498882
  12320.340  12320.330  0.500  0.751166  54.857161  94.139538  44.416546
  12324.507  12324.490  0.500  0.750530  56.054473  96.191397  45.413538
  12328.704  12328.680  0.500  0.749829  56.048512  96.193333  45.446294
  12332.917  12332.880  0.500  0.749070  55.991998  96.113835  45.443190
  12337.139  12337.110  0.500  0.748218  55.938609  96.037054  45.445592
  12341.364  12341.350  0.500  0.747305  55.880109  95.938399  45.440389
  12345.652  12345.610  0.500  0.746264  55.825487  95.855281  45.448319
  12349.896  12349.890  0.500  0.745472  55.664156  95.605625  45.365835
  12354.223  12354.190  0.500  0.744665  55.706259  95.690303  45.442679
  12358.527  12358.510  0.500  0.743747  55.626530  95.568935  45.426721
  12362.867  12362.850  0.500  0.743062  55.573083  95.483254  45.417106
  12367.243  12367.210  0.500  0.742454  55.547130  95.449822  45.428837
  12371.603  12371.590  0.500  0.741808  55.432739  95.264354  45.369852
  12376.025  12375.980  0.500  0.741354  55.423919  95.254729  45.385852
  12380.424  12380.400  0.500  0.740863  55.340134  95.125435  45.346511
  12384.833  12384.830  0.500  0.740443  55.078214  94.693318  45.159499
  12389.312  12389.280  0.500  0.740033  55.254636  95.010430  45.329298
  12393.781  12393.750  0.500  0.739663  55.184420  94.906317  45.296393
  12398.280  12398.240  0.500  0.739215  55.120247  94.805061  45.268328
  12402.796  12402.750  0.500  0.738686  55.062364  94.720023  45.251679
  12407.301  12407.280  0.500  0.738160  54.995290  94.618456  45.226929
  12411.884  12411.830  0.500  0.737529  54.930540  94.514507  45.205757
  12416.423  12416.400  0.500  0.736842  54.851868  94.388533  45.176510
  12421.019  12420.980  0.500  0.736183  54.792370  94.309656  45.168518
  12425.613  12425.590  0.500  0.735314  54.740103  94.240176  45.174491
  12430.263  12430.210  0.500  0.734432  54.640981  94.076973  45.136058
  12434.903  12434.860  0.500  0.733662  54.428077  93.721973  45.000386
  12439.534  12439.520  0.500  0.732893  54.556294  93.954981  45.146967
  12444.248  12444.200  0.500  0.732078  54.502556  93.874329  45.144985
  12448.953  12448.900  0.500  0.731256  54.434435  93.767022  45.130431
  12453.649  12453.620  0.500  0.730521  54.253821  93.476009  45.023453
  12458.401  12458.360  0.500  0.729905  54.301356  93.567306  45.095209
  12463.131  12463.110  0.500  0.729398  54.239195  93.476113  45.074127
  12467.945  12467.890  0.500  0.728898  54.108440  93.263354  44.994011
  12472.716  12472.690  0.500  0.728448  54.100334  93.255613  45.010507
  12477.537  12477.500  0.500  0.728008  54.030068  93.152704  44.980629
  12482.390  12482.330  0.500  0.727601  53.936344  92.993549  44.922055
  12487.233  12487.190  0.500  0.727225  53.745491  92.680241  44.787575
  12492.114  12492.060  0.500  0.726896  53.859846  92.907641  44.912228
  12496.985  12496.950  0.500  0.726440  53.785283  92.776809  44.869420
  12501.921  12501.860  0.500  0.725968  53.713526  92.671551  44.839680
  12506.827  12506.790  0.500  0.725395  53.643669  92.574287  44.818315
  12511.757  12511.730  0.500  0.724767  53.578778  92.468585  44.795257
  12516.760  12516.700  0.500  0.724157  53.504196  92.354379  44.767203
  12521.726  12521.690  0.500  0.723383  53.443260  92.262677  44.757413
  12526.723  12526.690  0.500  0.722674  53.372608  92.158136  44.738390
  12531.744  12531.720  0.500  0.721808  53.299309  92.036053  44.717832
  12536.811  12536.760  0.500  0.721041  53.203513  91.892808  44.682502
  12541.875  12541.820  0.500  0.720200  53.114051  91.748339  44.649792
  12546.944  12546.900  0.500  0.719449  53.099825  91.740247  44.679382
  12552.023  12552.000  0.500  0.718639  53.029969  91.630268  44.662004
  12557.154  12557.120  0.500  0.718007  52.944483  91.490087  44.621863
  12562.297  12562.260  0.500  0.717330  52.890538  91.413699  44.614788
  12567.458  12567.420  0.500  0.716555  52.821515  91.312513  44.599969
  12572.657  12572.600  0.500  0.715928  52.751654  91.206090  44.575911
  12577.847  12577.790  0.500  0.715336  52.660893  91.060630  44.531189
  12583.041  12583.010  0.500  0.714727  52.598485  90.958376  44.508251
  12588.295  12588.240  0.500  0.714253  52.525495  90.858341  44.480392
  12593.512  12593.490  0.500  0.713740  52.448417  90.726266  44.438521
  12598.810  12598.760  0.500  0.713111  52.368747  90.604674  44.406900
  12604.111  12604.050  0.500  0.712545  52.305098  90.513750  44.387455
  12609.404  12609.360  0.500  0.711992  52.234103  90.399033  44.355720
  12614.743  12614.690  0.500  0.711326  52.153726  90.280129  44.326877
  12620.079  12620.040  0.500  0.710634  52.066637  90.149869  44.293584
  12625.441  12625.410  0.500  0.709876  52.017127  90.061230  44.283557
  12630.842  12630.790  0.500  0.709173  51.947536  89.962283  44.266017
  12636.234  12636.200  0.500  0.708500  51.867737  89.840740  44.235980
  12641.665  12641.620  0.500  0.707719  51.723250  89.600816  44.152314
  12647.094  12647.070  0.500  0.706976  51.727172  89.620532  44.194840
  12652.577  12652.530  0.500  0.706151  51.669551  89.537599  44.190383
  12658.051  12658.010  0.500  0.705457  51.578169  89.390464  44.148410
  12663.557  12663.510  0.500  0.704684  51.491902  89.255615  44.115923
  12669.054  12669.030  0.500  0.704017  51.540922  89.356403  44.195185
  12674.619  12674.570  0.500  0.703425  51.515730  89.328030  44.207318
  12680.161  12680.120  0.500  0.702784  51.437948  89.203129  44.173799
  12685.722  12685.700  0.500  0.702152  51.384462  89.123470  44.162249
  12691.337  12691.300  0.500  0.701690  51.302783  88.991311  44.117139
  12696.929  12696.910  0.500  0.701009  51.230639  88.879973  44.091966
  12702.582  12702.550  0.500  0.700472  51.161207  88.771029  44.061587
  12708.247  12708.200  0.500  0.699850  51.082833  88.652851  44.030286
  12713.911  12713.870  0.500  0.699276  51.006876  88.544035  44.001512
  12719.586  12719.560  0.500  0.698740  50.916140  88.402172  43.954579
