# XDI/1.0 BlueSky/1.10.0 BMM/2023-1.0-py310-tiled
# Beamline.name: BMM (06BM) -- Beamline for Materials Measurement (NIST)
# Beamline.xray_source: NSLS-II three-pole wiggler
# Beamline.collimation: paraboloid mirror, 5 nm Rh on 30 nm Pt
# Beamline.focusing: not in use
# Beamline.harmonic_rejection: flat mirror, Si stripe, pitch = 7.0 mrad relative to beam
# Beamline.software: Bluesky 1.10.0, Ophyd 1.7.0, DataBroker 2.0.0b13, Python 3.10.8, 2023-1.0-py310-tiled
# Detector.I0: 10 cm N2
# Detector.I1: 25 cm N2
# Detector.I2: 25 cm N2
# Element.symbol: Nd
# Element.edge: L1
# Element.reference: Nd
# Element.reference_material: Nd2O3
# Facility.name: NSLS-II
# Facility.energy: 3.0
# Facility.current: 399.1
# Facility.mode: top-off
# Facility.GUP: 123456
# Facility.SAF: 301027
# Facility.cycle: 2023-2
# Mono.name: Si(111)
# Mono.d_spacing: 3.1351860
# Mono.encoder_resolution: 0.0000050 deg/ct
# Mono.angle_offset: 16.0754326 deg
# Mono.scan_mode: pseudo channel cut
# Mono.scan_type: step
# Mono.direction: forward in energy
# Sample.name: Nd2Ti2O7
# Sample.prep: Powder in PEG pellet
# Sample.x: 149.848 mm
# Sample.y: 114.690 mm
# Sample.SDD_position: 205.000 mm
# Scan.experimenters: Bruce Ravel
# Scan.edge_energy: 7126.0
# Scan.start_time: 2023-05-08T20:24:22
# Scan.end_time: 2023-05-08T20:30:15
# Scan.transient_id: 75581
# Scan.uid: 03f616dd-6100-451d-9eb1-2dbd34af3301
# Scan.plot_hint: ln(I0/It)  --  ln($5/$6)
# Column.1: energy eV
# Column.2: requested_energy eV
# Column.3: measurement_time seconds
# Column.4: xmu 
# Column.5: I0 nA
# Column.6: It nA
# Column.7: Ir nA
# ///////////
# sample courtesy Martin Stennett, University of Sheffield
# -----------
# energy  requested_energy  measurement_time  xmu  I0  It  Ir
  6926.008  6926.000  0.500  1.586966  149.797734  30.640408  5.952785
  6936.006  6936.000  0.500  1.579295  150.327471  30.985566  6.056970
  6946.019  6946.000  0.500  1.571109  150.401535  31.255627  6.144280
  6956.002  6956.000  0.500  1.562837  150.432148  31.521652  6.230187
  6966.055  6966.000  0.500  1.554299  150.455118  31.796792  6.321547
  6976.017  6976.000  0.500  1.545565  150.479028  32.080846  6.422273
  6986.018  6986.000  0.500  1.537439  150.457627  32.337980  6.520060
  6996.007  6996.000  0.500  1.529668  150.450309  32.588668  6.609478
  7006.009  7006.000  0.500  1.521493  150.455212  32.857254  6.698679
  7016.012  7016.000  0.500  1.513097  150.380787  33.117883  6.789209
  7026.017  7026.000  0.500  1.504708  150.360399  33.392352  6.887684
  7036.010  7036.000  0.500  1.496784  150.304769  33.645567  6.982610
  7046.012  7046.000  0.500  1.488731  150.273072  33.910441  7.077670
  7056.010  7056.000  0.500  1.480739  150.204955  34.167061  7.170889
  7066.008  7066.000  0.500  1.472956  150.088058  34.407228  7.260487
  7077.052  7076.000  0.500  1.464603  149.703938  34.607018  7.343855
  7085.982  7086.000  0.500  1.457448  150.089459  34.945288  7.460501
  7095.977  7096.000  0.500  1.449754  150.028421  35.200879  7.558640
  7097.980  7098.000  0.500  1.448316  150.007209  35.246526  7.575962
  7099.984  7100.000  0.500  1.446651  149.987555  35.300656  7.595626
  7101.986  7102.000  0.500  1.445370  149.974656  35.342868  7.612419
  7103.982  7104.000  0.500  1.443682  149.924536  35.390736  7.629510
  7105.989  7106.000  0.500  1.442222  149.938930  35.445857  7.650313
  7107.987  7108.000  0.500  1.440639  149.856191  35.482402  7.666218
  7109.990  7110.000  0.500  1.439164  149.826095  35.527638  7.683299
  7111.990  7112.000  0.500  1.437824  149.686924  35.542244  7.694050
  7113.991  7114.000  0.500  1.436500  149.578501  35.563547  7.705745
  7115.991  7116.000  0.500  1.434932  149.523327  35.606211  7.722410
  7116.481  7116.500  0.500  1.434535  149.495528  35.613755  7.725650
  7116.981  7117.000  0.500  1.434195  149.484963  35.623315  7.730644
  7117.482  7117.500  0.500  1.433869  149.465439  35.630281  7.732476
  7117.984  7118.000  0.500  1.433663  149.439037  35.631327  7.732955
  7118.483  7118.500  0.500  1.433182  149.420621  35.644094  7.738046
  7118.985  7119.000  0.500  1.432708  149.342842  35.642419  7.738770
  7119.486  7119.500  0.500  1.432729  149.330460  35.638734  7.739950
  7119.982  7120.000  0.500  1.432348  149.344658  35.655691  7.744532
  7120.481  7120.500  0.500  1.431723  149.329953  35.674452  7.749189
  7120.986  7121.000  0.500  1.431655  149.315718  35.673513  7.750898
  7121.487  7121.500  0.500  1.431133  149.284559  35.684668  7.754262
  7121.988  7122.000  0.500  1.431094  149.257306  35.679555  7.753378
  7122.492  7122.500  0.500  1.430527  149.236608  35.694837  7.757873
  7122.989  7123.000  0.500  1.430260  149.214806  35.699167  7.759390
  7123.490  7123.500  0.500  1.429947  149.182560  35.702617  7.761163
  7123.989  7124.000  0.500  1.429862  149.172729  35.703276  7.762323
  7124.484  7124.500  0.500  1.429498  149.125011  35.704862  7.761899
  7124.988  7125.000  0.500  1.429182  149.103829  35.711087  7.764650
  7125.491  7125.500  0.500  1.429005  149.065650  35.708259  7.764309
  7125.995  7126.000  0.500  1.428902  149.040419  35.705896  7.763214
  7126.493  7126.500  0.500  1.428710  149.019451  35.707700  7.763829
  7126.997  7127.000  0.500  1.428848  148.947928  35.685645  7.757433
  7127.494  7127.500  0.500  1.428831  148.949402  35.686613  7.756534
  7127.987  7128.000  0.500  1.428864  148.907015  35.675268  7.752033
  7128.494  7128.500  0.500  1.428607  148.880950  35.678190  7.748941
  7128.991  7129.000  0.500  1.428677  148.854010  35.669240  7.742755
  7129.494  7129.500  0.500  1.429188  148.819486  35.642764  7.731708
  7129.998  7130.000  0.500  1.429507  148.774007  35.620496  7.719274
  7130.496  7130.500  0.500  1.429612  148.729867  35.606198  7.707262
  7130.994  7131.000  0.500  1.429701  148.691825  35.593924  7.696359
  7131.501  7131.500  0.500  1.429879  148.655410  35.578878  7.686468
  7131.993  7132.000  0.500  1.429999  148.627244  35.567865  7.678257
  7132.495  7132.500  0.500  1.430143  148.600773  35.556395  7.670621
  7132.989  7133.000  0.500  1.430347  148.602900  35.549677  7.662694
  7133.498  7133.500  0.500  1.430478  148.609000  35.546477  7.657378
  7133.999  7134.000  0.500  1.430769  148.596955  35.533230  7.648633
  7134.498  7134.500  0.500  1.431097  148.617444  35.526483  7.640526
  7134.996  7135.000  0.500  1.431499  148.605221  35.509286  7.627749
  7135.497  7135.500  0.500  1.432078  148.588947  35.484845  7.612143
  7135.996  7136.000  0.500  1.432594  148.566378  35.461138  7.594508
  7136.497  7136.500  0.500  1.433479  148.570687  35.430809  7.573774
  7136.998  7137.000  0.500  1.434127  148.536623  35.399759  7.551347
  7137.504  7137.500  0.500  1.434918  148.567259  35.379036  7.527236
  7137.998  7138.000  0.500  1.435885  148.567778  35.344962  7.498872
  7138.500  7138.500  0.500  1.436852  148.573967  35.312279  7.468247
  7138.992  7139.000  0.500  1.437877  148.560702  35.272976  7.434858
  7139.505  7139.500  0.500  1.438922  148.556370  35.235088  7.398637
  7139.997  7140.000  0.500  1.439865  148.559321  35.202562  7.361590
  7140.503  7140.500  0.500  1.440479  148.549930  35.178732  7.325425
  7141.007  7141.000  0.500  1.441232  148.530502  35.147660  7.289411
  7141.505  7141.500  0.500  1.441926  148.562556  35.130881  7.258517
  7142.004  7142.000  0.500  1.442000  148.548712  35.125000  7.229406
  7142.504  7142.500  0.500  1.442189  148.539915  35.116286  7.206184
  7143.004  7143.000  0.500  1.442299  148.556308  35.116298  7.184132
  7143.499  7143.500  0.500  1.442236  148.550836  35.117207  7.170317
  7143.997  7144.000  0.500  1.441938  148.559728  35.129773  7.162456
  7144.502  7144.500  0.500  1.441913  148.536779  35.125244  7.157465
  7145.002  7145.000  0.500  1.441414  148.518160  35.138347  7.160293
  7145.500  7145.500  0.500  1.441052  148.521002  35.151747  7.167194
  7146.000  7146.000  0.500  1.440664  148.503019  35.161124  7.176239
  7146.498  7146.500  0.500  1.439987  148.505358  35.185497  7.193033
  7146.994  7147.000  0.500  1.439483  148.516098  35.205769  7.209655
  7147.497  7147.500  0.500  1.438913  148.509317  35.224261  7.228406
  7148.000  7148.000  0.500  1.438622  148.503371  35.233087  7.244423
  7148.500  7148.500  0.500  1.437960  148.489392  35.253113  7.265841
  7149.003  7149.000  0.500  1.437447  148.487167  35.270678  7.286088
  7149.502  7149.500  0.500  1.436989  148.490318  35.287574  7.303619
  7150.000  7150.000  0.500  1.436640  148.462372  35.293234  7.318696
  7150.497  7150.500  0.500  1.436097  148.491892  35.319420  7.337744
  7150.996  7151.000  0.500  1.435229  148.483825  35.348168  7.354325
  7151.996  7151.990  0.500  1.434396  148.480446  35.376846  7.379760
  7153.000  7152.990  0.500  1.433201  148.467437  35.416020  7.402611
  7154.018  7154.010  0.500  1.432049  148.448908  35.452427  7.422703
  7155.067  7155.060  0.500  1.431293  148.455200  35.480730  7.438077
  7156.133  7156.120  0.500  1.430004  148.437039  35.522148  7.459261
  7157.209  7157.200  0.500  1.428376  148.445218  35.582009  7.482672
  7158.306  7158.300  0.500  1.427257  148.386617  35.607770  7.503960
  7159.436  7159.420  0.500  1.425532  148.374082  35.666247  7.531128
  7160.574  7160.560  0.500  1.424073  148.374868  35.718491  7.560946
  7161.718  7161.710  0.500  1.422474  148.340685  35.767422  7.586653
  7162.902  7162.890  0.500  1.421286  148.316585  35.804121  7.611083
  7164.097  7164.080  0.500  1.419886  148.274643  35.844138  7.633133
  7165.305  7165.300  0.500  1.418525  148.222654  35.880385  7.652862
  7166.543  7166.530  0.500  1.417098  148.192163  35.924208  7.672047
  7167.796  7167.780  0.500  1.415720  148.168635  35.968057  7.690429
  7169.058  7169.050  0.500  1.414570  148.134552  36.001139  7.702755
  7170.347  7170.340  0.500  1.413578  148.122698  36.034019  7.714742
  7171.660  7171.650  0.500  1.412824  148.093920  36.054164  7.719517
  7172.985  7172.980  0.500  1.412026  148.088859  36.081714  7.722675
  7174.342  7174.330  0.500  1.411361  148.051390  36.096591  7.720563
  7175.710  7175.700  0.500  1.410707  147.998435  36.107301  7.715485
  7177.088  7177.080  0.500  1.410212  148.001848  36.125994  7.711516
  7178.503  7178.490  0.500  1.409820  147.993274  36.138067  7.708631
  7179.915  7179.910  0.500  1.408900  147.966868  36.164889  7.709727
  7181.366  7181.350  0.500  1.408226  147.915271  36.176630  7.711908
  7182.823  7182.810  0.500  1.407436  147.923632  36.207279  7.717682
  7184.297  7184.290  0.500  1.406884  147.895775  36.220452  7.720178
  7185.799  7185.790  0.500  1.406206  147.857144  36.235548  7.726391
  7187.322  7187.310  0.500  1.405212  147.806076  36.259072  7.734536
  7188.859  7188.850  0.500  1.404223  147.788674  36.290669  7.745820
  7190.423  7190.410  0.500  1.403240  147.749860  36.316812  7.756698
  7191.990  7191.980  0.500  1.402267  145.339871  35.759208  7.643643
  7193.588  7193.580  0.500  1.401242  147.518770  36.332530  7.771835
  7195.200  7195.190  0.500  1.400251  147.613516  36.391892  7.791948
  7196.844  7196.830  0.500  1.399105  147.603120  36.431074  7.811753
  7198.495  7198.480  0.500  1.397603  147.575482  36.479004  7.831098
  7200.160  7200.150  0.500  1.395734  147.520442  36.533628  7.855758
  7201.857  7201.840  0.500  1.394039  147.465104  36.581873  7.881106
  7203.556  7203.550  0.500  1.392799  147.444429  36.622118  7.908120
  7205.290  7205.280  0.500  1.390789  147.379232  36.679583  7.938371
  7207.038  7207.030  0.500  1.389127  147.370167  36.738342  7.967621
  7208.799  7208.790  0.500  1.387571  147.306381  36.779622  7.993454
  7210.589  7210.580  0.500  1.386014  147.236509  36.819458  8.016577
  7212.394  7212.380  0.500  1.384350  147.216007  36.875635  8.041158
  7214.221  7214.210  0.500  1.382837  147.161457  36.917776  8.060817
  7216.063  7216.050  0.500  1.381544  147.123607  36.956058  8.079823
  7217.925  7217.910  0.500  1.380024  147.080725  37.001455  8.097320
  7219.800  7219.790  0.500  1.378618  147.025124  37.039527  8.113267
  7221.702  7221.690  0.500  1.377260  146.975904  37.077457  8.125356
  7223.628  7223.610  0.500  1.375933  146.934992  37.116351  8.140088
  7225.529  7225.550  0.500  1.374553  146.836491  37.142667  8.149881
  7227.529  7227.510  0.500  1.373261  145.179539  36.771011  8.074417
  7229.490  7229.480  0.500  1.371999  146.969130  37.271281  8.185346
  7231.500  7231.480  0.500  1.370723  146.918424  37.306009  8.198184
  7233.499  7233.490  0.500  1.369012  146.844198  37.351003  8.213127
  7235.536  7235.520  0.500  1.367541  146.790013  37.392184  8.231219
  7237.593  7237.580  0.500  1.366185  146.764590  37.436459  8.251226
  7239.666  7239.650  0.500  1.364651  147.245184  37.616711  8.301060
  7241.754  7241.740  0.500  1.363505  147.206083  37.649821  8.319024
  7243.859  7243.850  0.500  1.362240  147.045741  37.656447  8.330256
  7245.996  7245.980  0.500  1.361720  146.437097  37.520085  8.310517
  7248.126  7248.120  0.500  1.360928  146.969397  37.686299  8.355870
  7250.308  7250.290  0.500  1.358908  146.986429  37.766859  8.382492
  7252.494  7252.480  0.500  1.356509  146.853937  37.823449  8.404492
  7254.690  7254.680  0.500  1.354448  144.579632  37.314514  8.298098
  7256.917  7256.900  0.500  1.352858  146.986332  37.996035  8.460346
  7259.160  7259.150  0.500  1.350944  146.812006  38.023680  8.476713
  7261.419  7261.410  0.500  1.349505  146.433971  37.980381  8.477847
  7263.704  7263.690  0.500  1.347727  139.446247  36.232336  8.101849
  7265.997  7265.990  0.500  1.346131  146.011875  37.998896  8.499489
  7268.331  7268.310  0.500  1.344497  147.161631  38.360754  8.594693
  7270.663  7270.650  0.500  1.342822  147.225240  38.441672  8.626069
  7273.010  7273.000  0.500  1.341313  146.971798  38.433435  8.638268
  7275.399  7275.380  0.500  1.339938  147.199373  38.545896  8.677107
  7277.785  7277.770  0.500  1.338430  147.184376  38.600142  8.703612
  7280.205  7280.190  0.500  1.336756  147.140961  38.653425  8.729331
  7282.632  7282.620  0.500  1.335021  147.087809  38.706561  8.756821
  7285.084  7285.070  0.500  1.333374  145.192637  38.270818  8.669427
  7287.563  7287.550  0.500  1.331239  146.828977  38.784837  8.800365
  7290.052  7290.040  0.500  1.329623  146.860697  38.855943  8.826215
  7292.568  7292.550  0.500  1.327521  146.831637  38.930003  8.854107
  7295.085  7295.070  0.500  1.325831  146.789268  38.984623  8.876985
  7297.630  7297.620  0.500  1.323737  146.694609  39.041157  8.900079
  7300.210  7300.190  0.500  1.321769  146.469837  39.058104  8.913439
  7302.787  7302.770  0.500  1.319898  146.796747  39.218581  8.958254
  7305.394  7305.380  0.500  1.317960  146.700109  39.268790  8.979884
  7308.014  7308.000  0.500  1.316159  146.659223  39.328638  9.005541
  7310.665  7310.650  0.500  1.314371  146.601916  39.383632  9.030013
  7313.328  7313.310  0.500  1.312520  146.534602  39.438476  9.054161
  7316.001  7315.990  0.500  1.310498  146.505250  39.510392  9.084017
  7318.704  7318.690  0.500  1.308697  146.470463  39.572197  9.110262
  7321.430  7321.410  0.500  1.306914  146.418949  39.628875  9.137426
  7324.166  7324.150  0.500  1.305265  146.343490  39.673820  9.163164
  7326.917  7326.900  0.500  1.303324  146.309476  39.741661  9.192834
  7329.694  7329.680  0.500  1.301526  146.271669  39.802912  9.221089
  7332.485  7332.470  0.500  1.299606  146.202333  39.860489  9.248822
  7335.308  7335.290  0.500  1.297593  146.147440  39.925797  9.276166
  7338.134  7338.120  0.500  1.295712  145.872180  39.925640  9.290560
  7340.977  7340.970  0.500  1.293896  145.887904  40.002512  9.322576
  7343.865  7343.850  0.500  1.291977  145.943351  40.094599  9.358075
  7346.756  7346.740  0.500  1.289929  145.900803  40.165080  9.387770
  7349.660  7349.650  0.500  1.287725  145.832589  40.234893  9.418508
  7352.577  7352.570  0.500  1.285703  145.800865  40.307546  9.448594
  7355.531  7355.520  0.500  1.283731  145.755121  40.374458  9.479412
  7358.499  7358.490  0.500  1.281478  145.658646  40.438740  9.510322
  7361.477  7361.470  0.500  1.279439  145.599536  40.504838  9.542284
  7364.496  7364.480  0.500  1.277261  145.550497  40.579463  9.575618
  7367.513  7367.500  0.500  1.275313  145.471226  40.636428  9.606160
  7370.556  7370.550  0.500  1.273289  145.436281  40.708980  9.638403
  7373.620  7373.610  0.500  1.271253  145.360597  40.770715  9.669844
  7376.701  7376.690  0.500  1.269362  145.290144  40.828117  9.700278
  7379.798  7379.790  0.500  1.267138  145.213362  40.897403  9.732483
  7382.925  7382.910  0.500  1.264767  145.136042  40.972652  9.765750
  7386.060  7386.050  0.500  1.262637  145.058278  41.038005  9.795204
  7389.210  7389.200  0.500  1.260551  145.000704  41.107386  9.826481
  7392.392  7392.380  0.500  1.258309  144.949173  41.184999  9.858308
  7395.584  7395.570  0.500  1.256537  144.868515  41.235085  9.884802
  7398.803  7398.790  0.500  1.254354  144.793854  41.303887  9.916264
  7402.033  7402.020  0.500  1.252097  144.711946  41.373813  9.948248
  7405.279  7405.270  0.500  1.249878  144.648504  41.447544  9.981355
  7408.557  7408.550  0.500  1.247721  144.568461  41.514045  10.013155
  7411.860  7411.840  0.500  1.245451  144.488718  41.585471  10.047322
  7415.165  7415.150  0.500  1.243367  144.417837  41.651764  10.080256
  7418.481  7418.470  0.500  1.241017  144.360256  41.733112  10.119377
  7421.830  7421.820  0.500  1.238585  144.279226  41.811255  10.155855
  7425.203  7425.190  0.500  1.236410  144.175639  41.872202  10.189194
  7428.585  7428.570  0.500  1.233986  144.090397  41.949005  10.227257
  7431.995  7431.980  0.500  1.231708  144.003711  42.019401  10.260585
  7435.418  7435.400  0.500  1.229589  143.900679  42.078405  10.294326
  7438.870  7438.850  0.500  1.227154  143.808144  42.153853  10.328697
  7442.321  7442.310  0.500  1.224869  143.645886  42.202630  10.357948
  7445.801  7445.790  0.500  1.222506  140.964201  41.512736  10.210695
  7449.304  7449.290  0.500  1.220271  143.620337  42.389559  10.440330
  7452.824  7452.810  0.500  1.218022  143.114909  42.335483  10.444081
  7456.352  7456.350  0.500  1.215738  143.392635  42.514644  10.506129
  7459.919  7459.900  0.500  1.213541  139.923071  41.577193  10.290906
  7463.502  7463.480  0.500  1.211067  143.219880  42.662254  10.578213
  7467.097  7467.080  0.500  1.208639  142.177839  42.454796  10.545503
  7470.701  7470.690  0.500  1.206173  143.163262  42.854590  10.663602
  7474.352  7474.320  0.500  1.204046  143.027252  42.905040  10.694941
  7478.001  7477.980  0.500  1.201551  142.900517  42.974110  10.732725
  7481.678  7481.650  0.500  1.199241  142.783562  43.038220  10.768838
  7485.370  7485.340  0.500  1.197108  142.674356  43.097131  10.803541
  7489.074  7489.050  0.500  1.194899  142.570034  43.160859  10.839326
  7492.781  7492.780  0.500  1.192480  142.470989  43.235368  10.877386
  7496.542  7496.520  0.500  1.189971  142.367284  43.312398  10.914984
  7500.307  7500.290  0.500  1.187542  142.261548  43.385495  10.952699
  7504.096  7504.080  0.500  1.185028  142.137582  43.456801  10.990259
  7507.891  7507.880  0.500  1.182763  142.031675  43.522907  11.026188
  7511.720  7511.710  0.500  1.180198  141.923939  43.601568  11.065403
  7515.562  7515.550  0.500  1.177943  141.811990  43.665524  11.103333
  7519.419  7519.410  0.500  1.175706  141.667077  43.718627  11.136283
  7523.307  7523.290  0.500  1.172876  141.596915  43.820774  11.182785
  7527.206  7527.190  0.500  1.170412  141.472963  43.890436  11.222331
  7531.127  7531.110  0.500  1.167893  141.340203  43.959854  11.261091
  7535.061  7535.050  0.500  1.165431  141.200867  44.024792  11.299577
  7539.038  7539.010  0.500  1.162906  141.078545  44.097858  11.338336
  7542.996  7542.980  0.500  1.160604  140.944376  44.157443  11.375008
  7546.999  7546.980  0.500  1.157996  140.819246  44.233442  11.417502
  7551.006  7550.990  0.500  1.155522  140.695289  44.303995  11.456873
  7555.062  7555.030  0.500  1.153090  140.534398  44.361087  11.495250
  7559.103  7559.080  0.500  1.150642  140.415192  44.432061  11.535239
  7563.167  7563.150  0.500  1.148185  140.293386  44.502744  11.575145
  7567.254  7567.240  0.500  1.145620  140.178361  44.580471  11.617101
  7571.371  7571.350  0.500  1.143188  140.033077  44.642708  11.653534
  7575.481  7575.480  0.500  1.140768  139.852342  44.693091  11.689013
  7579.662  7579.630  0.500  1.138366  139.720161  44.758244  11.729909
  7583.809  7583.790  0.500  1.135687  139.550791  44.823913  11.770423
  7588.001  7587.980  0.500  1.132956  139.372966  44.889217  11.809544
  7592.167  7592.180  0.500  1.130436  139.183150  44.941177  11.846813
  7596.431  7596.410  0.500  1.127988  138.945429  44.974386  11.878582
  7600.673  7600.650  0.500  1.125317  138.556939  44.968580  11.901137
  7604.922  7604.910  0.500  1.122955  138.207439  44.961259  11.921066
  7609.213  7609.190  0.500  1.120627  137.940438  44.978970  11.950713
  7613.489  7613.490  0.500  1.118026  137.843566  45.064437  11.996962
  7617.793  7617.810  0.500  1.115316  137.817157  45.178081  12.050916
  7622.161  7622.150  0.500  1.112764  137.921316  45.327766  12.114411
  7626.522  7626.510  0.500  1.110191  137.903634  45.438714  12.168767
  7630.898  7630.890  0.500  1.107509  137.766438  45.515404  12.213769
  7635.289  7635.280  0.500  1.104839  137.617283  45.587666  12.256393
  7639.718  7639.700  0.500  1.102336  137.435806  45.641670  12.296782
  7644.152  7644.130  0.500  1.099571  137.272702  45.713737  12.339247
  7648.594  7648.580  0.500  1.096923  137.115775  45.782521  12.382267
  7653.063  7653.050  0.500  1.094308  136.969520  45.853434  12.426268
  7657.558  7657.540  0.500  1.091582  136.793282  45.919446  12.467918
  7662.049  7662.050  0.500  1.088993  136.587638  45.969287  12.506550
  7666.593  7666.580  0.500  1.086305  136.441127  46.043597  12.552026
  7671.147  7671.130  0.500  1.083577  136.300311  46.121699  12.599045
