# XDI/1.0 BlueSky/1.10.0 BMM/2023-1.0-py310-tiled
# Beamline.name: BMM (06BM) -- Beamline for Materials Measurement (NIST)
# Beamline.xray_source: NSLS-II three-pole wiggler
# Beamline.collimation: paraboloid mirror, 5 nm Rh on 30 nm Pt
# Beamline.focusing: not in use
# Beamline.harmonic_rejection: flat mirror, Si stripe, pitch = 7.0 mrad relative to beam
# Beamline.software: Bluesky 1.10.0, Ophyd 1.7.0, DataBroker 2.0.0b13, Python 3.10.8, 2023-1.0-py310-tiled
# Detector.I0: 10 cm N2
# Detector.I1: 25 cm N2
# Detector.I2: 25 cm N2
# Element.symbol: Nd
# Element.edge: L3
# Element.reference: Nd
# Element.reference_material: Nd2O3
# Facility.name: NSLS-II
# Facility.energy: 3.0
# Facility.current: 399.1
# Facility.mode: top-off
# Facility.GUP: 123456
# Facility.SAF: 301027
# Facility.cycle: 2023-2
# Mono.name: Si(111)
# Mono.d_spacing: 3.1351860
# Mono.encoder_resolution: 0.0000050 deg/ct
# Mono.angle_offset: 16.0754326 deg
# Mono.scan_mode: pseudo channel cut
# Mono.scan_type: step
# Mono.direction: forward in energy
# Sample.name: Nd2Zr2O7
# Sample.prep: Powder in PEG pellet
# Sample.x: 149.848 mm
# Sample.y: 114.690 mm
# Sample.SDD_position: 205.000 mm
# Scan.experimenters: Bruce Ravel
# Scan.edge_energy: 6207.9
# Scan.start_time: 2023-05-08T16:43:18
# Scan.end_time: 2023-05-08T16:48:58
# Scan.transient_id: 75412
# Scan.uid: 2f0c6457-a91d-430f-9777-17c49abb5bb3
# Scan.plot_hint: ln(I0/It)  --  ln($5/$6)
# Column.1: energy eV
# Column.2: requested_energy eV
# Column.3: measurement_time seconds
# Column.4: xmu 
# Column.5: I0 nA
# Column.6: It nA
# Column.7: Ir nA
# ///////////
# sample courtesy Martin Stennett, University of Sheffield
# -----------
# energy  requested_energy  measurement_time  xmu  I0  It  Ir
  6007.909  6007.900  0.500  2.719971  147.679104  9.728603  1.353988
  6017.912  6017.900  0.500  2.704090  147.860025  9.896446  1.390275
  6027.916  6027.900  0.500  2.687516  148.607717  10.112723  1.434283
  6037.903  6037.900  0.500  2.671866  148.846268  10.288718  1.473350
  6047.914  6047.900  0.500  2.655809  149.085498  10.472063  1.514130
  6057.920  6057.900  0.500  2.640015  149.018064  10.633954  1.551983
  6067.916  6067.900  0.500  2.623960  149.031105  10.807008  1.591902
  6077.913  6077.900  0.500  2.608585  149.277030  10.992562  1.633742
  6087.909  6087.900  0.500  2.593153  149.450069  11.176451  1.676370
  6097.912  6097.900  0.500  2.577744  149.718221  11.370368  1.720907
  6107.910  6107.900  0.500  2.562263  149.934756  11.564473  1.766484
  6117.911  6117.900  0.500  2.547059  150.134734  11.757295  1.812482
  6128.206  6127.900  0.500  2.531708  150.301793  11.952455  1.858706
  6137.886  6137.900  0.500  2.517505  150.531546  12.141969  1.905183
  6147.885  6147.900  0.500  2.502243  150.702656  12.342709  1.953713
  6157.889  6157.900  0.500  2.487799  150.790817  12.529614  1.999949
  6167.890  6167.900  0.500  2.473862  150.885289  12.713421  2.045840
  6177.891  6177.900  0.500  2.460503  151.150067  12.906999  2.092470
  6179.894  6179.900  0.500  2.458190  151.205178  12.941605  2.100888
  6181.886  6181.900  0.500  2.455811  151.243524  12.975722  2.109034
  6183.891  6183.900  0.500  2.453341  151.268599  13.009969  2.117672
  6185.886  6185.900  0.500  2.451083  151.270343  13.039535  2.124129
  6187.890  6187.900  0.500  2.449209  151.296330  13.066234  2.130605
  6189.894  6189.900  0.500  2.447439  151.323363  13.091718  2.136313
  6191.890  6191.900  0.500  2.446083  151.347935  13.111617  2.140924
  6193.890  6193.900  0.500  2.445400  151.355198  13.121196  2.142134
  6195.893  6195.900  0.500  2.445477  151.384356  13.122713  2.140978
  6197.891  6197.900  0.500  2.446507  151.404005  13.110914  2.136058
  6198.384  6198.400  0.500  2.447175  151.406504  13.102371  2.133417
  6198.886  6198.900  0.500  2.448319  151.402617  13.087055  2.129648
  6199.387  6199.400  0.500  2.448732  151.397186  13.081177  2.127171
  6199.886  6199.900  0.500  2.449592  151.395184  13.069762  2.123127
  6200.384  6200.400  0.500  2.450643  151.396680  13.056159  2.118773
  6200.886  6200.900  0.500  2.452124  151.389464  13.036219  2.112959
  6201.388  6201.400  0.500  2.454440  151.406282  13.007514  2.104499
  6201.887  6201.900  0.500  2.456447  151.401951  12.981057  2.096053
  6202.390  6202.400  0.500  2.458942  151.404616  12.948943  2.086751
  6202.888  6202.900  0.500  2.462227  151.402143  12.906263  2.074718
  6203.390  6203.400  0.500  2.466340  151.411569  12.854081  2.058727
  6203.889  6203.900  0.500  2.471309  151.416882  12.790822  2.040548
  6204.390  6204.400  0.500  2.476946  151.417415  12.718969  2.019377
  6204.890  6204.900  0.500  2.483403  151.397098  12.635404  1.996230
  6205.391  6205.400  0.500  2.490314  151.426611  12.550830  1.972786
  6205.894  6205.900  0.500  2.498067  151.436619  12.454730  1.946504
  6206.389  6206.400  0.500  2.507101  151.440887  12.343068  1.916819
  6206.890  6206.900  0.500  2.518045  151.440366  12.208675  1.881976
  6207.391  6207.400  0.500  2.530007  151.440943  12.063554  1.844733
  6207.894  6207.900  0.500  2.544348  151.440392  11.891743  1.802314
  6208.396  6208.400  0.500  2.562845  151.442071  11.673925  1.750186
  6208.894  6208.900  0.500  2.586880  151.444773  11.396896  1.685749
  6209.394  6209.400  0.500  2.619416  151.454331  11.032747  1.602916
  6209.892  6209.900  0.500  2.663919  151.455639  10.552615  1.495217
  6210.397  6210.400  0.500  2.720429  151.459355  9.973068  1.367236
  6210.896  6210.900  0.500  2.784279  151.457790  9.356092  1.229786
  6211.396  6211.400  0.500  2.854570  151.466273  8.721515  1.082281
  6211.897  6211.900  0.500  2.924953  151.472017  8.129084  0.936119
  6212.394  6212.400  0.500  2.991166  151.471814  7.608256  0.802255
  6212.895  6212.900  0.500  3.053026  151.480124  7.152263  0.683161
  6213.397  6213.400  0.500  3.105449  151.477749  6.786869  0.589403
  6213.896  6213.900  0.500  3.141670  151.473231  6.545245  0.528238
  6214.394  6214.400  0.500  3.162283  151.471434  6.411633  0.496165
  6214.896  6214.900  0.500  3.167356  151.467779  6.379036  0.491515
  6215.398  6215.400  0.500  3.158268  151.465435  6.437171  0.510953
  6215.899  6215.900  0.500  3.135712  151.466057  6.584044  0.550559
  6216.398  6216.400  0.500  3.100644  151.471288  6.819267  0.607123
  6216.896  6216.900  0.500  3.059284  151.473424  7.107328  0.674188
  6217.398  6217.400  0.500  3.014558  151.480814  7.432788  0.746743
  6217.901  6217.900  0.500  2.968507  151.475704  7.782815  0.824305
  6218.402  6218.400  0.500  2.924293  151.479991  8.134878  0.902029
  6218.901  6218.900  0.500  2.884712  151.500127  8.464447  0.975260
  6219.402  6219.400  0.500  2.847456  151.505556  8.786064  1.045648
  6219.901  6219.900  0.500  2.814744  151.500164  9.077894  1.110746
  6220.396  6220.400  0.500  2.786593  151.508492  9.337597  1.168540
  6220.900  6220.900  0.500  2.761387  151.515376  9.576385  1.221115
  6221.400  6221.400  0.500  2.739944  151.511995  9.783732  1.267540
  6221.904  6221.900  0.500  2.722699  151.502030  9.953256  1.304288
  6222.400  6222.400  0.500  2.709450  151.508759  10.086454  1.332536
  6222.899  6222.900  0.500  2.698727  151.521913  10.196084  1.354793
  6223.401  6223.400  0.500  2.689792  151.518237  10.287336  1.371796
  6223.904  6223.900  0.500  2.683065  151.507618  10.356048  1.383961
  6224.406  6224.400  0.500  2.677026  151.511327  10.419036  1.394122
  6224.903  6224.900  0.500  2.671936  151.513045  10.472319  1.401850
  6225.405  6225.400  0.500  2.667350  151.528479  10.521526  1.408858
  6225.902  6225.900  0.500  2.664004  151.519835  10.556191  1.415136
  6226.400  6226.400  0.500  2.661060  151.530105  10.588032  1.420712
  6226.899  6226.900  0.500  2.659357  151.528416  10.605965  1.425054
  6227.404  6227.400  0.500  2.658987  151.532410  10.610163  1.428755
  6227.904  6227.900  0.500  2.659444  151.522073  10.604593  1.432119
  6228.401  6228.400  0.500  2.660356  151.526996  10.595275  1.434956
  6228.903  6228.900  0.500  2.662436  151.526270  10.573211  1.436296
  6229.399  6229.400  0.500  2.663850  151.524242  10.558129  1.439155
  6229.898  6229.900  0.500  2.665939  151.523359  10.536026  1.439396
  6230.402  6230.400  0.500  2.668541  151.527296  10.508924  1.439062
  6230.905  6230.900  0.500  2.671023  151.531216  10.483140  1.437162
  6231.403  6231.400  0.500  2.673492  151.533063  10.457420  1.435225
  6231.900  6231.900  0.500  2.675175  151.534136  10.439909  1.432182
  6232.401  6232.400  0.500  2.676899  151.523261  10.421180  1.429816
  6232.900  6232.900  0.500  2.677936  151.531129  10.410923  1.425857
  6233.897  6233.890  0.500  2.678759  151.531589  10.402385  1.418345
  6234.900  6234.890  0.500  2.677754  151.533936  10.413009  1.410049
  6235.916  6235.910  0.500  2.674921  151.528646  10.442186  1.402572
  6236.974  6236.960  0.500  2.672746  151.535559  10.465401  1.394109
  6238.026  6238.020  0.500  2.672494  151.551123  10.469105  1.383241
  6239.111  6239.100  0.500  2.674057  151.555534  10.453067  1.370288
  6240.213  6240.200  0.500  2.678530  151.576125  10.407828  1.354441
  6241.328  6241.320  0.500  2.684513  151.582923  10.346209  1.336636
  6242.468  6242.460  0.500  2.691072  151.587911  10.278909  1.319199
  6243.617  6243.610  0.500  2.697600  151.562475  10.210306  1.303378
  6244.798  6244.790  0.500  2.704086  151.590366  10.146163  1.291158
  6245.995  6245.980  0.500  2.709135  151.584277  10.094666  1.282951
  6247.206  6247.200  0.500  2.712528  151.594545  10.061151  1.280069
  6248.436  6248.430  0.500  2.713875  151.605389  10.048325  1.282303
  6249.689  6249.680  0.500  2.712540  151.616568  10.062487  1.290371
  6250.960  6250.950  0.500  2.708138  151.624712  10.107423  1.303555
  6252.249  6252.240  0.500  2.700867  151.617805  10.180721  1.321511
  6253.559  6253.550  0.500  2.691814  151.618768  10.273367  1.343495
  6254.889  6254.880  0.500  2.681146  151.606692  10.382730  1.368598
  6256.239  6256.230  0.500  2.670884  151.618557  10.490644  1.393880
  6257.614  6257.600  0.500  2.661274  151.608212  10.591221  1.419118
  6258.985  6258.980  0.500  2.653055  151.620786  10.679518  1.441465
  6260.398  6260.390  0.500  2.646070  151.615990  10.754032  1.460051
  6261.824  6261.810  0.500  2.641014  151.604492  10.807729  1.473975
  6263.260  6263.250  0.500  2.637902  151.616195  10.842251  1.482998
  6264.721  6264.710  0.500  2.636140  151.630005  10.862352  1.488405
  6266.205  6266.190  0.500  2.635050  151.648505  10.875531  1.491817
  6267.700  6267.690  0.500  2.634854  151.659569  10.878454  1.493699
  6269.221  6269.210  0.500  2.635132  151.674698  10.876515  1.494954
  6270.759  6270.750  0.500  2.634873  151.675358  10.879387  1.495785
  6272.322  6272.310  0.500  2.634164  151.676475  10.887173  1.497555
  6273.891  6273.880  0.500  2.633339  151.679196  10.896363  1.497361
  6275.491  6275.480  0.500  2.632947  151.684193  10.900992  1.496437
  6277.101  6277.090  0.500  2.632086  151.689362  10.910747  1.495020
  6278.740  6278.730  0.500  2.631800  151.707677  10.915195  1.493527
  6280.392  6280.380  0.500  2.631658  151.698713  10.916099  1.491109
  6282.058  6282.050  0.500  2.631025  151.713053  10.924037  1.489120
  6283.752  6283.740  0.500  2.629675  151.698340  10.937740  1.486544
  6285.461  6285.450  0.500  2.627870  151.693953  10.957180  1.485562
  6287.189  6287.180  0.500  2.624925  151.686707  10.988970  1.486556
  6288.945  6288.930  0.500  2.621353  151.679031  11.027742  1.490907
  6290.700  6290.690  0.500  2.617742  151.685950  11.068140  1.497441
  6292.493  6292.480  0.500  2.614510  151.683474  11.103787  1.504974
  6294.292  6294.280  0.500  2.611823  151.698087  11.134734  1.512731
  6296.122  6296.110  0.500  2.609624  151.702231  11.159552  1.519423
  6297.961  6297.950  0.500  2.607375  151.693435  11.184023  1.526338
  6299.820  6299.810  0.500  2.606243  151.715485  11.198318  1.534010
  6301.698  6301.690  0.500  2.604634  151.695956  11.214913  1.541829
  6303.601  6303.590  0.500  2.603856  151.674374  11.222047  1.549468
  6305.525  6305.510  0.500  2.601876  151.669021  11.243891  1.558498
  6307.460  6307.450  0.500  2.599560  151.655508  11.268958  1.568660
  6309.420  6309.410  0.500  2.596284  151.663033  11.306490  1.579604
  6311.392  6311.380  0.500  2.592679  151.642052  11.345762  1.591017
  6313.387  6313.380  0.500  2.588871  151.660933  11.390459  1.602530
  6315.400  6315.390  0.500  2.585440  151.650999  11.428863  1.611592
  6317.434  6317.420  0.500  2.582466  151.670549  11.464382  1.619038
  6319.492  6319.480  0.500  2.578900  151.646862  11.503539  1.625663
  6321.555  6321.550  0.500  2.574226  151.604860  11.554227  1.634594
  6323.650  6323.640  0.500  2.569965  151.597423  11.602998  1.642793
  6325.761  6325.750  0.500  2.566903  151.603682  11.639059  1.649502
  6327.891  6327.880  0.500  2.563913  151.584747  11.672461  1.656244
  6330.030  6330.020  0.500  2.561701  152.286198  11.752435  1.670037
  6332.198  6332.190  0.500  2.559333  152.265940  11.778731  1.675183
  6334.390  6334.380  0.500  2.557627  152.249655  11.797579  1.680565
  6336.591  6336.580  0.500  2.555696  152.225255  11.818496  1.685372
  6338.812  6338.800  0.500  2.553125  152.227294  11.849075  1.690782
  6341.061  6341.050  0.500  2.550367  152.218105  11.881088  1.697942
  6343.316  6343.310  0.500  2.547436  152.183157  11.913218  1.704374
  6345.597  6345.590  0.500  2.544553  152.190935  11.948222  1.710428
  6347.901  6347.890  0.500  2.541377  152.188333  11.986026  1.716764
  6350.222  6350.210  0.500  2.539276  152.164148  12.009326  1.720452
  6352.560  6352.550  0.500  2.537373  152.146217  12.030790  1.723557
  6354.915  6354.900  0.500  2.535294  152.123173  12.053997  1.728054
  6357.288  6357.280  0.500  2.532923  152.108553  12.081448  1.734285
  6359.676  6359.670  0.500  2.529236  152.094193  12.124938  1.744708
  6362.098  6362.090  0.500  2.524770  152.092576  12.179078  1.756941
  6364.527  6364.520  0.500  2.520534  152.071293  12.229064  1.769494
  6366.981  6366.970  0.500  2.516758  152.065755  12.274885  1.782237
  6369.460  6369.450  0.500  2.513322  152.060204  12.316675  1.794461
  6371.953  6371.940  0.500  2.509574  152.033195  12.360731  1.807152
  6374.462  6374.450  0.500  2.505937  152.008458  12.403755  1.820391
  6376.979  6376.970  0.500  2.502034  151.989206  12.450682  1.833552
  6379.528  6379.520  0.500  2.497632  151.974389  12.504390  1.846860
  6382.097  6382.090  0.500  2.494264  151.949220  12.544502  1.856876
  6384.677  6384.670  0.500  2.491038  151.916286  12.582310  1.866066
  6387.285  6387.280  0.500  2.488032  151.912547  12.619879  1.875291
  6389.906  6389.900  0.500  2.485326  151.858597  12.649574  1.883109
  6392.555  6392.550  0.500  2.482300  151.831399  12.685637  1.891223
  6395.218  6395.210  0.500  2.479489  151.812270  12.719749  1.899181
  6397.897  6397.890  0.500  2.476660  151.779009  12.752988  1.906757
  6400.597  6400.590  0.500  2.473334  151.749271  12.792972  1.915822
  6403.317  6403.310  0.500  2.469755  151.708141  12.835353  1.925475
  6406.057  6406.050  0.500  2.465585  151.666536  12.885454  1.936997
  6408.806  6408.800  0.500  2.461593  151.642001  12.934904  1.949222
  6411.585  6411.580  0.500  2.457602  151.620055  12.984754  1.960993
  6414.373  6414.370  0.500  2.453989  151.607197  13.030652  1.972120
  6417.192  6417.190  0.500  2.450754  151.550208  13.067948  1.981913
  6420.020  6420.020  0.500  2.446923  151.501813  13.113926  1.992942
  6422.875  6422.870  0.500  2.442513  151.441452  13.166634  2.005474
  6425.756  6425.750  0.500  2.438520  151.401995  13.215867  2.017548
  6428.646  6428.640  0.500  2.434121  151.320761  13.267008  2.029124
  6431.556  6431.550  0.500  2.430175  151.243190  13.312646  2.040994
  6434.476  6434.470  0.500  2.425993  151.164103  13.361435  2.052404
  6437.426  6437.420  0.500  2.422283  151.117631  13.406986  2.062577
  6440.397  6440.390  0.500  2.418521  151.101068  13.456039  2.074283
  6443.374  6443.370  0.500  2.415165  151.071263  13.498607  2.085155
  6446.388  6446.380  0.500  2.411957  151.019354  13.537325  2.094351
  6449.405  6449.400  0.500  2.408692  149.639151  13.457472  2.086723
  6452.460  6452.450  0.500  2.405106  150.861453  13.616136  2.116914
  6455.519  6455.510  0.500  2.401625  150.856108  13.663141  2.130337
  6458.596  6458.590  0.500  2.397882  148.237798  13.476349  2.107153
  6461.698  6461.690  0.500  2.393827  150.654099  13.751665  2.157381
  6464.817  6464.810  0.500  2.390040  148.101369  13.569940  2.135926
  6467.955  6467.950  0.500  2.385465  150.462155  13.849463  2.186700
  6471.104  6471.100  0.500  2.381158  150.464308  13.909439  2.202635
  6474.289  6474.280  0.500  2.376800  148.548891  13.792356  2.189596
  6477.475  6477.470  0.500  2.372813  150.272958  14.008164  2.229555
  6480.695  6480.690  0.500  2.368375  150.252873  14.068589  2.243880
  6483.927  6483.920  0.500  2.364367  150.181885  14.118424  2.256715
  6487.177  6487.170  0.500  2.360526  150.115742  14.166505  2.269176
  6490.465  6490.450  0.500  2.356633  150.050596  14.215589  2.281110
  6493.753  6493.740  0.500  2.352781  149.997243  14.265378  2.293868
  6497.061  6497.050  0.500  2.348767  149.907194  14.314164  2.306651
  6500.385  6500.370  0.500  2.344699  149.822343  14.364370  2.319472
  6503.734  6503.720  0.500  2.340450  149.760987  14.419631  2.333620
  6507.102  6507.090  0.500  2.336467  149.651470  14.466588  2.348156
  6510.476  6510.470  0.500  2.332321  149.582313  14.519976  2.363644
  6513.897  6513.880  0.500  2.327730  149.488017  14.577608  2.379080
  6517.315  6517.300  0.500  2.323146  149.407517  14.636699  2.396043
  6520.767  6520.750  0.500  2.318381  149.321373  14.698121  2.412631
  6524.238  6524.210  0.500  2.313930  149.224594  14.754125  2.428451
  6527.715  6527.690  0.500  2.309554  149.119100  14.808356  2.444080
  6531.202  6531.190  0.500  2.305232  149.022283  14.862829  2.458949
  6534.727  6534.710  0.500  2.300647  148.883850  14.917269  2.474229
  6538.265  6538.250  0.500  2.296276  148.789020  14.973064  2.490134
  6541.826  6541.800  0.500  2.292093  148.661584  15.022952  2.504240
  6545.393  6545.380  0.500  2.287968  148.569936  15.075750  2.519207
  6548.991  6548.980  0.500  2.283718  148.448699  15.127612  2.534657
  6552.610  6552.590  0.500  2.279201  148.304364  15.181326  2.549708
  6556.245  6556.220  0.500  2.274993  148.197899  15.234387  2.565483
  6559.897  6559.880  0.500  2.270476  148.071555  15.290315  2.581631
  6563.566  6563.550  0.500  2.266029  147.955730  15.346450  2.599441
  6567.242  6567.240  0.500  2.261237  147.852530  15.409416  2.617668
  6570.967  6570.950  0.500  2.256499  147.751812  15.472049  2.637293
  6574.705  6574.680  0.500  2.251940  147.655876  15.532660  2.655702
  6578.444  6578.420  0.500  2.247462  147.556641  15.591878  2.673847
  6582.187  6582.190  0.500  2.243204  147.418941  15.643797  2.690601
  6585.968  6585.980  0.500  2.237960  147.093809  15.691371  2.706297
  6589.766  6589.780  0.500  2.233540  147.180071  15.770118  2.727102
  6593.601  6593.610  0.500  2.229207  147.084074  15.828261  2.744270
  6597.458  6597.450  0.500  2.224595  146.963038  15.888350  2.762773
  6601.320  6601.310  0.500  2.219880  146.858651  15.952106  2.781854
  6605.196  6605.190  0.500  2.215013  146.683471  16.010805  2.799723
  6609.099  6609.090  0.500  2.210557  146.599127  16.073070  2.818719
  6613.025  6613.010  0.500  2.205909  146.468432  16.133549  2.835972
  6616.963  6616.950  0.500  2.201108  146.339328  16.196896  2.854810
  6620.921  6620.910  0.500  2.196538  146.207350  16.256425  2.873222
  6624.897  6624.880  0.500  2.192079  146.115149  16.318762  2.892567
  6628.895  6628.880  0.500  2.187347  145.942098  16.376750  2.911588
  6632.907  6632.890  0.500  2.182222  145.887821  16.454772  2.933622
  6636.918  6636.930  0.500  2.177242  145.776998  16.524371  2.955674
  6640.964  6640.980  0.500  2.172340  145.654411  16.591607  2.977090
  6645.079  6645.050  0.500  2.167235  145.542498  16.663700  3.000087
  6649.140  6649.140  0.500  2.162207  145.423765  16.734041  3.022174
  6653.269  6653.250  0.500  2.157214  145.315741  16.805303  3.043810
  6657.371  6657.380  0.500  2.152457  145.181819  16.869881  3.063834
  6661.517  6661.530  0.500  2.147427  145.080051  16.943066  3.086125
  6665.675  6665.690  0.500  2.142176  144.936907  17.015462  3.109009
  6669.862  6669.880  0.500  2.137462  144.812067  17.081141  3.130513
  6674.061  6674.080  0.500  2.132622  144.704439  17.151254  3.153170
  6678.313  6678.310  0.500  2.127753  144.558854  17.217630  3.175233
  6682.583  6682.550  0.500  2.123195  144.454949  17.283856  3.197801
  6686.794  6686.810  0.500  2.118428  144.330590  17.351484  3.219766
  6691.078  6691.090  0.500  2.113573  144.198755  17.420011  3.241313
  6695.396  6695.390  0.500  2.109188  144.048042  17.478279  3.262751
  6699.688  6699.710  0.500  2.104158  143.879258  17.545824  3.284355
