# XDI/1.0 BlueSky/1.10.0 BMM/2023-1.0-py310-tiled
# Beamline.name: BMM (06BM) -- Beamline for Materials Measurement (NIST)
# Beamline.xray_source: NSLS-II three-pole wiggler
# Beamline.collimation: paraboloid mirror, 5 nm Rh on 30 nm Pt
# Beamline.focusing: not in use
# Beamline.harmonic_rejection: flat mirror, Si stripe, pitch = 7.0 mrad relative to beam
# Beamline.software: Bluesky 1.10.0, Ophyd 1.7.0, DataBroker 2.0.0b13, Python 3.10.8, 2023-1.0-py310-tiled
# Detector.I0: 10 cm N2
# Detector.I1: 25 cm N2
# Detector.I2: 25 cm N2
# Element.symbol: Pr
# Element.edge: L3
# Element.reference: Pr
# Element.reference_material: Pr6O11
# Facility.name: NSLS-II
# Facility.energy: 3.0
# Facility.current: 400.1
# Facility.mode: top-off
# Facility.GUP: 123456
# Facility.SAF: 301027
# Facility.cycle: 2023-2
# Mono.name: Si(111)
# Mono.d_spacing: 3.1351860
# Mono.encoder_resolution: 0.0000050 deg/ct
# Mono.angle_offset: 16.0754326 deg
# Mono.scan_mode: pseudo channel cut
# Mono.scan_type: step
# Mono.direction: forward in energy
# Sample.name: Pr2Ti2O7
# Sample.prep: Powder in PEG pellet
# Sample.x: 123.848 mm
# Sample.y: 114.690 mm
# Sample.SDD_position: 205.000 mm
# Scan.experimenters: Bruce Ravel
# Scan.edge_energy: 5964.3
# Scan.start_time: 2023-05-08T16:15:07
# Scan.end_time: 2023-05-08T16:20:41
# Scan.transient_id: 75390
# Scan.uid: ebc21475-d466-4580-a861-84f199330bf0
# Scan.plot_hint: ln(I0/It)  --  ln($5/$6)
# Column.1: energy eV
# Column.2: requested_energy eV
# Column.3: measurement_time seconds
# Column.4: xmu 
# Column.5: I0 nA
# Column.6: It nA
# Column.7: Ir nA
# ///////////
# sample courtesy Martin Stennett, University of Sheffield
# -----------
# energy  requested_energy  measurement_time  xmu  I0  It  Ir
  5764.308  5764.300  0.500  2.421637  115.150938  10.222655  0.433162
  5774.313  5774.300  0.500  2.405976  115.362893  10.403127  0.447854
  5784.308  5784.300  0.500  2.390486  115.525852  10.580454  0.462496
  5794.301  5794.300  0.500  2.375060  115.699981  10.761133  0.477887
  5804.309  5804.300  0.500  2.359443  115.848257  10.944514  0.493700
  5814.309  5814.300  0.500  2.344106  115.950576  11.123479  0.509721
  5824.311  5824.300  0.500  2.329263  116.044977  11.299003  0.525462
  5834.307  5834.300  0.500  2.314242  116.077717  11.473250  0.541749
  5844.308  5844.300  0.500  2.299943  116.066102  11.637320  0.558106
  5854.304  5854.300  0.500  2.284965  115.935402  11.799627  0.574342
  5864.289  5864.300  0.500  2.270240  115.592436  11.939246  0.589745
  5874.290  5874.300  0.500  2.257491  105.956867  11.084429  0.557348
  5884.289  5884.300  0.500  2.242141  115.372731  12.256140  0.624286
  5894.291  5894.300  0.500  2.228086  114.953210  12.384416  0.639487
  5904.292  5904.300  0.500  2.213863  114.519868  12.514471  0.655532
  5914.291  5914.300  0.500  2.199417  111.936722  12.410177  0.658648
  5924.295  5924.300  0.500  2.185667  114.777075  12.901263  0.693364
  5934.297  5934.300  0.500  2.172431  107.900679  12.289933  0.666949
  5936.295  5936.300  0.500  2.170008  114.492909  13.072419  0.710591
  5938.296  5938.300  0.500  2.167578  114.143164  13.064196  0.710688
  5940.293  5940.300  0.500  2.165210  113.582831  13.030887  0.709580
  5942.295  5942.300  0.500  2.163160  112.111332  12.888465  0.701774
  5944.297  5944.300  0.500  2.161600  107.244698  12.348240  0.672077
  5946.295  5946.300  0.500  2.161453  101.883539  11.732667  0.639252
  5948.291  5948.300  0.500  2.158870  115.254421  13.306758  0.721734
  5950.298  5950.300  0.500  2.158120  114.992114  13.286433  0.717346
  5952.297  5952.300  0.500  2.157858  114.808870  13.268743  0.711207
  5954.295  5954.300  0.500  2.159148  114.626739  13.230614  0.700443
  5954.789  5954.800  0.500  2.159092  114.571902  13.225017  0.697492
  5955.290  5955.300  0.500  2.159922  114.464350  13.201648  0.693143
  5955.788  5955.800  0.500  2.160576  114.495150  13.196559  0.688730
  5956.290  5956.300  0.500  2.162263  114.451627  13.169311  0.682986
  5956.789  5956.800  0.500  2.164509  114.413149  13.135349  0.676173
  5957.288  5957.300  0.500  2.166255  114.384053  13.109104  0.668539
  5957.789  5957.800  0.500  2.168971  114.358764  13.070649  0.659577
  5958.290  5958.300  0.500  2.172454  114.315748  13.020315  0.648091
  5958.790  5958.800  0.500  2.176002  114.277908  12.969905  0.635096
  5959.288  5959.300  0.500  2.180039  114.227454  12.911939  0.620646
  5959.788  5959.800  0.500  2.184879  114.202989  12.846849  0.604213
  5960.289  5960.300  0.500  2.190022  114.165842  12.776785  0.586358
  5960.794  5960.800  0.500  2.196609  114.119052  12.687701  0.567395
  5961.294  5961.300  0.500  2.204098  114.110088  12.592049  0.547375
  5961.794  5961.800  0.500  2.212817  114.079396  12.479385  0.526493
  5962.293  5962.300  0.500  2.223956  114.045276  12.337450  0.501606
  5962.790  5962.800  0.500  2.239061  114.013048  12.149062  0.471693
  5963.292  5963.300  0.500  2.257767  113.942005  11.916478  0.435980
  5963.795  5963.800  0.500  2.281787  113.950406  11.634514  0.394141
  5964.293  5964.300  0.500  2.315378  113.908852  11.246094  0.343037
  5964.795  5964.800  0.500  2.354838  113.858842  10.806216  0.289678
  5965.290  5965.300  0.500  2.400279  113.859333  10.326206  0.237137
  5965.794  5965.800  0.500  2.449387  113.845777  9.830189  0.188621
  5966.296  5966.300  0.500  2.495948  113.803231  9.379469  0.147869
  5966.799  5966.800  0.500  2.537290  113.782837  8.997992  0.115101
  5967.300  5967.300  0.500  2.570799  113.748725  8.698871  0.090538
  5967.797  5967.800  0.500  2.592682  113.709977  8.507677  0.075205
  5968.293  5968.300  0.500  2.603498  113.698845  8.415328  0.065982
  5968.796  5968.800  0.500  2.601730  113.663855  8.427626  0.061819
  5969.301  5969.300  0.500  2.589080  113.611246  8.530969  0.061643
  5969.801  5969.800  0.500  2.567365  113.589495  8.716571  0.063874
  5970.295  5970.300  0.500  2.539739  113.557406  8.958202  0.067862
  5970.795  5970.800  0.500  2.510184  113.513938  9.223380  0.072431
  5971.297  5971.300  0.500  2.479682  113.472764  9.505601  0.077734
  5971.799  5971.800  0.500  2.449961  113.451118  9.790490  0.083846
  5972.303  5972.300  0.500  2.422739  113.412306  10.057216  0.090710
  5972.797  5972.800  0.500  2.398124  113.392087  10.306013  0.099156
  5973.297  5973.300  0.500  2.375376  113.370112  10.541098  0.109177
  5973.799  5973.800  0.500  2.356027  113.736237  10.781749  0.120064
  5974.303  5974.300  0.500  2.339514  113.685471  10.956373  0.131176
  5974.799  5974.800  0.500  2.325377  113.659398  11.109818  0.141673
  5975.299  5975.300  0.500  2.314704  113.606206  11.223777  0.150435
  5975.799  5975.800  0.500  2.306467  113.561746  11.312176  0.157547
  5976.304  5976.300  0.500  2.299943  113.522555  11.382288  0.162754
  5976.806  5976.800  0.500  2.296158  113.483815  11.421557  0.165376
  5977.300  5977.300  0.500  2.294213  113.421967  11.437548  0.165669
  5977.800  5977.800  0.500  2.293130  113.379579  11.445666  0.163996
  5978.301  5978.300  0.500  2.292078  113.354489  11.455184  0.160920
  5978.803  5978.800  0.500  2.291638  113.323040  11.457040  0.157630
  5979.303  5979.300  0.500  2.291479  113.260904  11.452575  0.154908
  5979.807  5979.800  0.500  2.291538  113.213663  11.447125  0.154242
  5980.300  5980.300  0.500  2.291151  113.150110  11.445125  0.155164
  5980.799  5980.800  0.500  2.290043  113.086016  11.451326  0.157411
  5981.301  5981.300  0.500  2.289354  113.004869  11.450995  0.160429
  5981.806  5981.800  0.500  2.288977  112.917344  11.446440  0.164500
  5982.302  5982.300  0.500  2.287824  112.813990  11.449155  0.169765
  5982.802  5982.800  0.500  2.286906  112.772780  11.455490  0.176154
  5983.300  5983.300  0.500  2.285798  112.700747  11.460863  0.184278
  5983.802  5983.800  0.500  2.284815  112.584022  11.460248  0.193141
  5984.302  5984.300  0.500  2.283802  112.467436  11.459992  0.201898
  5984.806  5984.800  0.500  2.282973  112.315608  11.454012  0.210201
  5985.306  5985.300  0.500  2.282217  112.127312  11.443449  0.217685
  5985.803  5985.800  0.500  2.281384  111.938113  11.433666  0.223835
  5986.300  5986.300  0.500  2.280216  111.705660  11.423254  0.229177
  5986.802  5986.800  0.500  2.278979  111.370548  11.403087  0.233645
  5987.304  5987.300  0.500  2.277835  110.935102  11.371504  0.237094
  5987.804  5987.800  0.500  2.277541  110.321100  11.311883  0.239415
  5988.306  5988.300  0.500  2.276803  109.390531  11.224757  0.240904
  5988.803  5988.800  0.500  2.276349  107.844914  11.071176  0.240280
  5989.300  5989.300  0.500  2.276023  104.772305  10.759255  0.235598
  5990.302  5990.290  0.500  2.274974  86.887314  8.931976  0.197997
  5991.301  5991.290  0.500  2.280386  98.125652  10.032827  0.225380
  5992.326  5992.310  0.500  2.279345  114.076590  11.675875  0.262058
  5993.364  5993.360  0.500  2.281557  114.499077  11.693222  0.261280
  5994.422  5994.420  0.500  2.284526  114.309928  11.639301  0.257313
  5995.508  5995.500  0.500  2.288159  114.098426  11.575629  0.251728
  5996.609  5996.600  0.500  2.291325  113.900330  11.519007  0.245688
  5997.730  5997.720  0.500  2.294492  113.735878  11.466003  0.239628
  5998.872  5998.860  0.500  2.297195  113.555340  11.416904  0.233597
  6000.021  6000.010  0.500  2.299014  113.450604  11.385652  0.228008
  6001.199  6001.190  0.500  2.300135  113.310637  11.358865  0.223407
  6002.386  6002.380  0.500  2.299849  113.189301  11.349945  0.220452
  6003.612  6003.600  0.500  2.298196  113.060252  11.355759  0.218812
  6004.835  6004.830  0.500  2.294899  112.950285  11.382180  0.218977
  6006.096  6006.080  0.500  2.290054  112.871438  11.429479  0.220016
  6007.344  6007.350  0.500  2.284403  112.781923  11.485131  0.221742
  6008.640  6008.640  0.500  2.277979  112.687741  11.549491  0.224095
  6009.956  6009.950  0.500  2.271361  112.572613  11.614308  0.227337
  6011.291  6011.280  0.500  2.265705  112.497816  11.672423  0.231051
  6012.640  6012.630  0.500  2.260487  112.400184  11.723302  0.234569
  6014.013  6014.000  0.500  2.256225  112.287415  11.761562  0.237770
  6015.391  6015.380  0.500  2.252098  112.224977  11.803632  0.239913
  6016.797  6016.790  0.500  2.247402  112.111693  11.847224  0.242436
  6018.222  6018.210  0.500  2.245058  112.012732  11.864542  0.244363
  6019.656  6019.650  0.500  2.242412  111.941404  11.888401  0.246647
  6021.119  6021.110  0.500  2.239999  111.825455  11.904782  0.249050
  6022.594  6022.590  0.500  2.238369  111.748118  11.915952  0.251425
  6024.093  6024.090  0.500  2.236622  111.650350  11.926349  0.253796
  6025.617  6025.610  0.500  2.234680  111.537490  11.937454  0.256095
  6027.151  6027.150  0.500  2.232980  111.433866  11.946658  0.257872
  6028.714  6028.710  0.500  2.232152  111.338461  11.946309  0.259261
  6030.284  6030.280  0.500  2.231484  111.251553  11.944962  0.260148
  6031.883  6031.880  0.500  2.230499  111.136322  11.944355  0.260860
  6033.495  6033.490  0.500  2.230333  111.022854  11.934144  0.261212
  6035.134  6035.130  0.500  2.231005  110.900493  11.912981  0.261561
  6036.783  6036.780  0.500  2.231077  110.795255  11.900821  0.262089
  6038.456  6038.450  0.500  2.230839  110.672323  11.890445  0.262602
  6040.146  6040.140  0.500  2.229670  110.557704  11.892022  0.263425
  6041.851  6041.850  0.500  2.228687  110.442406  11.891299  0.263823
  6043.587  6043.580  0.500  2.227393  110.308021  11.892208  0.264126
  6045.334  6045.330  0.500  2.225380  110.175294  11.901837  0.264602
  6047.094  6047.090  0.500  2.222852  110.062993  11.919796  0.264706
  6048.890  6048.880  0.500  2.220180  109.932172  11.937486  0.264798
  6050.688  6050.680  0.500  2.217495  109.778103  11.952804  0.264940
  6052.515  6052.510  0.500  2.214388  109.615105  11.972194  0.265310
  6054.358  6054.350  0.500  2.211328  109.429781  11.988588  0.265352
  6056.217  6056.210  0.500  2.207777  109.203095  12.006311  0.265839
  6058.099  6058.090  0.500  2.203935  109.000319  12.030152  0.266355
  6059.998  6059.990  0.500  2.200624  108.752210  12.042570  0.266678
  6061.919  6061.910  0.500  2.197907  108.525250  12.050130  0.266664
  6063.856  6063.850  0.500  2.194518  108.348947  12.071402  0.266715
  6065.818  6065.810  0.500  2.191260  108.196267  12.093721  0.266815
  6067.787  6067.780  0.500  2.188485  108.039887  12.109808  0.267274
  6069.790  6069.780  0.500  2.185891  107.858587  12.120883  0.267571
  6071.798  6071.790  0.500  2.183670  107.681224  12.127860  0.269024
  6073.829  6073.820  0.500  2.181524  107.503146  12.133812  0.270117
  6075.890  6075.880  0.500  2.178945  107.337045  12.146346  0.272213
  6077.957  6077.950  0.500  2.177028  107.151099  12.148581  0.274218
  6080.048  6080.040  0.500  2.174595  106.960288  12.156483  0.275884
  6082.156  6082.150  0.500  2.171962  106.767284  12.166535  0.278093
  6084.295  6084.280  0.500  2.169194  106.551762  12.175631  0.280264
  6086.428  6086.420  0.500  2.167091  106.346389  12.177745  0.282068
  6088.595  6088.590  0.500  2.164807  106.145443  12.182540  0.283453
  6090.789  6090.780  0.500  2.162818  105.928234  12.181810  0.284316
  6092.990  6092.980  0.500  2.160352  105.722119  12.188127  0.284927
  6095.214  6095.200  0.500  2.157741  105.464140  12.190169  0.285211
  6097.462  6097.450  0.500  2.154968  105.235459  12.197518  0.285535
  6099.720  6099.710  0.500  2.152003  104.998972  12.206249  0.285582
  6101.999  6101.990  0.500  2.148908  104.750688  12.215133  0.285442
  6104.297  6104.290  0.500  2.145152  104.500393  12.231792  0.285987
  6106.624  6106.610  0.500  2.141534  104.214953  12.242594  0.287114
  6108.965  6108.950  0.500  2.138273  103.935147  12.249615  0.288762
  6111.313  6111.300  0.500  2.134733  103.662140  12.260765  0.290654
  6113.691  6113.680  0.500  2.131580  103.391562  12.267374  0.292896
  6116.078  6116.070  0.500  2.128251  103.088673  12.272223  0.294659
  6118.499  6118.490  0.500  2.125888  102.762765  12.262372  0.295690
  6120.927  6120.920  0.500  2.123213  102.465428  12.259641  0.297321
  6123.377  6123.370  0.500  2.121104  102.145683  12.247183  0.298696
  6125.859  6125.850  0.500  2.119249  101.816769  12.230416  0.299531
  6128.351  6128.340  0.500  2.116275  101.487672  12.227189  0.301206
  6130.860  6130.850  0.500  2.113461  101.140702  12.219724  0.302164
  6133.379  6133.370  0.500  2.110514  100.802172  12.214774  0.303094
  6135.929  6135.920  0.500  2.107386  100.361546  12.199482  0.303435
  6138.499  6138.490  0.500  2.104059  100.021842  12.198703  0.303817
  6141.082  6141.070  0.500  2.100490  99.603218  12.191077  0.304302
  6143.688  6143.680  0.500  2.096837  99.174819  12.183072  0.304350
  6146.306  6146.300  0.500  2.092873  98.707804  12.173860  0.304709
  6148.957  6148.950  0.500  2.088902  98.254761  12.166202  0.305026
  6151.618  6151.610  0.500  2.084846  97.724530  12.149724  0.305414
  6154.297  6154.290  0.500  2.080930  97.099682  12.119409  0.305775
  6156.997  6156.990  0.500  2.077291  96.229542  12.054589  0.305803
  6159.719  6159.710  0.500  2.072859  94.215048  11.854659  0.302315
  6162.457  6162.450  0.500  2.069909  95.814457  12.091519  0.310339
  6165.208  6165.200  0.500  2.066362  94.797990  12.005758  0.310219
  6167.987  6167.980  0.500  2.063382  94.049268  11.946485  0.310180
  6170.776  6170.770  0.500  2.060516  96.107684  12.242988  0.319878
  6173.598  6173.590  0.500  2.057488  95.156539  12.158586  0.319398
  6176.426  6176.420  0.500  2.054625  94.476964  12.106356  0.319465
  6179.276  6179.270  0.500  2.051812  93.878014  12.063496  0.319877
  6182.158  6182.150  0.500  2.049105  93.300628  12.021806  0.319721
  6185.047  6185.040  0.500  2.045594  92.711206  11.987873  0.319933
  6187.962  6187.950  0.500  2.042257  92.109780  11.949920  0.319654
  6190.876  6190.870  0.500  2.038903  91.524949  11.913930  0.319582
  6193.829  6193.820  0.500  2.035679  90.930898  11.874822  0.318716
  6196.800  6196.790  0.500  2.031646  90.332084  11.844295  0.318799
  6199.781  6199.770  0.500  2.027720  89.731176  11.811792  0.319078
  6202.789  6202.780  0.500  2.024342  89.113591  11.770187  0.319358
  6205.809  6205.800  0.500  2.021079  88.466266  11.722875  0.319957
  6208.855  6208.850  0.500  2.017167  87.838867  11.685366  0.320702
  6211.916  6211.910  0.500  2.013695  87.186015  11.638848  0.321062
  6214.995  6214.990  0.500  2.009778  86.538950  11.597809  0.321423
  6218.100  6218.090  0.500  2.005391  85.904993  11.563469  0.322541
  6221.219  6221.210  0.500  2.001312  85.221773  11.518394  0.323481
  6224.356  6224.350  0.500  1.997494  84.553999  11.471850  0.324111
  6227.508  6227.500  0.500  1.993900  83.887990  11.422465  0.323860
  6230.688  6230.680  0.500  1.990358  83.194150  11.368188  0.323719
  6233.876  6233.870  0.500  1.987254  82.504988  11.309065  0.323092
  6237.095  6237.090  0.500  1.983179  81.810595  11.259671  0.322645
  6240.329  6240.320  0.500  1.979103  81.123783  11.210750  0.322210
  6243.576  6243.570  0.500  1.975591  80.413108  11.151638  0.321079
  6246.864  6246.850  0.500  1.971700  79.711865  11.097486  0.320618
  6250.155  6250.140  0.500  1.967406  78.999595  11.045653  0.320223
  6253.462  6253.450  0.500  1.963295  78.303780  10.993461  0.320315
  6256.780  6256.770  0.500  1.959279  77.595673  10.937889  0.320367
  6260.122  6260.120  0.500  1.955427  76.864813  10.876681  0.320581
  6263.490  6263.490  0.500  1.951476  76.156898  10.819172  0.321153
  6266.874  6266.870  0.500  1.947665  75.447025  10.759246  0.321495
  6270.281  6270.280  0.500  1.943645  74.739371  10.701261  0.321856
  6273.702  6273.700  0.500  1.939793  74.010552  10.637814  0.322197
  6277.149  6277.150  0.500  1.935789  73.305836  10.578796  0.322550
  6280.612  6280.610  0.500  1.931568  72.583253  10.518821  0.322585
  6284.094  6284.090  0.500  1.927701  71.888203  10.458465  0.322577
  6287.598  6287.590  0.500  1.923555  71.181186  10.398628  0.321853
  6291.117  6291.110  0.500  1.919617  70.461495  10.334103  0.321173
  6294.657  6294.650  0.500  1.915576  69.755851  10.272035  0.320142
  6298.201  6298.200  0.500  1.911320  69.047728  10.211123  0.319200
  6301.785  6301.780  0.500  1.907185  68.348850  10.149652  0.318284
  6305.390  6305.380  0.500  1.903141  67.656297  10.087529  0.317795
  6309.001  6308.990  0.500  1.899109  66.971739  10.025801  0.317158
  6312.626  6312.620  0.500  1.894789  66.563826  10.007873  0.318431
  6316.285  6316.280  0.500  1.890786  65.855699  9.941122  0.318355
  6319.954  6319.950  0.500  1.886284  65.176514  9.882991  0.318568
  6323.645  6323.640  0.500  1.882362  64.476342  9.815238  0.318584
  6327.369  6327.350  0.500  1.877925  63.807425  9.756602  0.318862
  6331.084  6331.080  0.500  1.873820  63.126075  9.692125  0.318926
  6334.832  6334.820  0.500  1.869957  62.463115  9.627460  0.319012
  6338.604  6338.590  0.500  1.866056  61.804399  9.563160  0.318866
  6342.397  6342.380  0.500  1.861573  61.142841  9.503302  0.318889
  6346.189  6346.180  0.500  1.857588  60.493332  9.439901  0.318797
  6350.021  6350.010  0.500  1.853481  59.840421  9.376438  0.318218
  6353.860  6353.850  0.500  1.848887  59.199141  9.318668  0.317601
  6357.720  6357.710  0.500  1.844310  58.566054  9.261306  0.316982
  6361.587  6361.590  0.500  1.839706  57.939400  9.204496  0.316308
  6365.504  6365.490  0.500  1.835057  57.311705  9.147197  0.315654
  6369.424  6369.410  0.500  1.830480  56.693973  9.090115  0.315014
  6373.359  6373.350  0.500  1.825866  56.074474  9.032366  0.314777
  6377.331  6377.310  0.500  1.821292  55.451989  8.973054  0.314665
  6381.272  6381.280  0.500  1.817426  54.827508  8.906364  0.314363
  6385.269  6385.280  0.500  1.812907  54.231232  8.849399  0.314433
  6389.305  6389.290  0.500  1.808377  53.629167  8.790893  0.314689
  6393.346  6393.330  0.500  1.804227  53.017189  8.726720  0.314698
  6397.397  6397.380  0.500  1.799751  52.428465  8.668525  0.314824
  6401.467  6401.450  0.500  1.795119  51.843466  8.611600  0.314898
  6405.550  6405.540  0.500  1.790678  51.269232  8.554116  0.314631
  6409.668  6409.650  0.500  1.786509  50.693048  8.493319  0.314298
  6413.772  6413.780  0.500  1.782014  50.104670  8.432557  0.314019
  6417.946  6417.930  0.500  1.777990  49.552294  8.373221  0.313373
