# XDI/1.0 BlueSky/1.10.0 BMM/2023-1.0-py310-tiled
# Beamline.name: BMM (06BM) -- Beamline for Materials Measurement (NIST)
# Beamline.xray_source: NSLS-II three-pole wiggler
# Beamline.collimation: paraboloid mirror, 5 nm Rh on 30 nm Pt
# Beamline.focusing: not in use
# Beamline.harmonic_rejection: flat mirror, Pt stripe, pitch = 7.0 mrad relative to beam
# Beamline.software: Bluesky 1.10.0, Ophyd 1.7.0, DataBroker 2.0.0b13, Python 3.10.8, 2023-1.0-py310-tiled
# Detector.I0: 10 cm N2
# Detector.I1: 25 cm N2
# Detector.I2: 25 cm N2
# Element.symbol: Lu
# Element.edge: L3
# Element.reference: Lu
# Element.reference_material: Lu2O3
# Facility.name: NSLS-II
# Facility.energy: 3.0
# Facility.current: 400.4
# Facility.mode: top-off
# Facility.GUP: 123456
# Facility.SAF: 301027
# Facility.cycle: 2023-2
# Mono.name: Si(111)
# Mono.d_spacing: 3.1351860
# Mono.encoder_resolution: 0.0000050 deg/ct
# Mono.angle_offset: 16.0754326 deg
# Mono.scan_mode: pseudo channel cut
# Mono.scan_type: step
# Mono.direction: forward in energy
# Sample.name: Lu2TiO5
# Sample.prep: Powder in PEG pellet
# Sample.x: 149.848 mm
# Sample.y: 114.690 mm
# Sample.SDD_position: 205.000 mm
# Scan.experimenters: Bruce Ravel
# Scan.edge_energy: 9244.1
# Scan.start_time: 2023-05-08T19:39:05
# Scan.end_time: 2023-05-08T19:44:59
# Scan.transient_id: 75547
# Scan.uid: 815333d6-c1a3-4b29-ad3b-7377ef9710d2
# Scan.plot_hint: ln(I0/It)  --  ln($5/$6)
# Column.1: energy eV
# Column.2: requested_energy eV
# Column.3: measurement_time seconds
# Column.4: xmu 
# Column.5: I0 nA
# Column.6: It nA
# Column.7: Ir nA
# ///////////
# sample courtesy Martin Stennett, University of Sheffield
# -----------
# energy  requested_energy  measurement_time  xmu  I0  It  Ir
  9044.139  9044.100  0.500  0.732890  116.769935  56.110097  16.670228
  9054.200  9054.100  0.500  0.729219  116.639237  56.253425  16.772220
  9064.168  9064.100  0.500  0.726034  115.649851  55.954155  16.748651
  9074.134  9074.100  0.500  0.722601  116.232045  56.429236  16.950769
  9084.132  9084.100  0.500  0.719152  115.980694  56.501782  17.032056
  9094.157  9094.100  0.500  0.715702  115.815903  56.616493  17.129087
  9104.108  9104.100  0.500  0.712075  114.372292  56.113928  17.037245
  9114.132  9114.100  0.500  0.708606  115.389432  56.809677  17.309547
  9124.142  9124.100  0.500  0.705269  115.184963  56.898573  17.398139
  9134.125  9134.100  0.500  0.702032  114.939104  56.961210  17.478242
  9144.072  9144.100  0.500  0.697692  111.341065  55.418108  17.057359
  9154.082  9154.100  0.500  0.694708  114.791649  57.306324  17.695924
  9164.081  9164.100  0.500  0.691653  114.670741  57.421078  17.785461
  9174.092  9174.100  0.500  0.688435  114.539458  57.540247  17.875492
  9184.089  9184.100  0.500  0.685830  114.409106  57.624656  17.947159
  9194.079  9194.100  0.500  0.683359  114.067765  57.594886  17.969489
  9204.087  9204.100  0.500  0.681526  113.780799  57.555391  17.969922
  9214.104  9214.100  0.500  0.681356  113.551867  57.449355  17.896373
  9216.077  9216.100  0.500  0.681503  113.502287  57.415814  17.867680
  9218.072  9218.100  0.500  0.681850  113.452301  57.370650  17.828914
  9220.069  9220.100  0.500  0.682597  113.399978  57.301325  17.776998
  9222.070  9222.100  0.500  0.683550  113.356745  57.224949  17.711375
  9224.069  9224.100  0.500  0.684802  113.296514  57.123003  17.623416
  9226.068  9226.100  0.500  0.686606  113.240512  56.991857  17.511203
  9228.076  9228.100  0.500  0.689018  113.193993  56.831180  17.370386
  9230.081  9230.100  0.500  0.692409  113.137329  56.610417  17.175565
  9232.075  9232.100  0.500  0.697092  113.094351  56.324532  16.920216
  9234.078  9234.100  0.500  0.703986  113.052997  55.917124  16.560270
  9234.567  9234.600  0.500  0.706092  113.040210  55.793181  16.453851
  9235.071  9235.100  0.500  0.708555  113.031690  55.651716  16.331553
  9235.575  9235.600  0.500  0.711067  113.014963  55.503894  16.197563
  9236.075  9236.100  0.500  0.713884  112.995423  55.338215  16.049968
  9236.575  9236.600  0.500  0.717197  112.989627  55.152356  15.886762
  9237.072  9237.100  0.500  0.720607  112.976219  54.958058  15.710643
  9237.576  9237.600  0.500  0.724615  112.959709  54.730247  15.514412
  9238.076  9238.100  0.500  0.729078  112.953113  54.483343  15.297120
  9238.565  9238.600  0.500  0.733909  112.933731  54.211479  15.057681
  9239.069  9239.100  0.500  0.739653  112.923451  53.896042  14.783238
  9239.574  9239.600  0.500  0.745992  112.906071  53.547238  14.473582
  9240.074  9240.100  0.500  0.753633  112.898840  53.136247  14.118845
  9240.586  9240.600  0.500  0.762224  112.886170  52.675810  13.721380
  9241.083  9241.100  0.500  0.771746  112.872937  52.170462  13.288807
  9241.591  9241.600  0.500  0.782579  112.853708  51.599584  12.801357
  9242.088  9242.100  0.500  0.795248  112.845301  50.946197  12.248246
  9242.585  9242.600  0.500  0.810310  112.836333  50.180570  11.615074
  9243.086  9243.100  0.500  0.828029  112.820698  49.292458  10.885740
  9243.587  9243.600  0.500  0.849159  112.811109  48.257697  10.056656
  9244.073  9244.100  0.500  0.873584  112.805878  47.091121  9.144717
  9244.582  9244.600  0.500  0.901841  112.795460  45.774878  8.147399
  9245.079  9245.100  0.500  0.933893  112.782970  44.326044  7.095534
  9245.580  9245.600  0.500  0.970550  112.772838  42.726767  5.998519
  9246.089  9246.100  0.500  1.010703  112.765993  41.042632  4.922519
  9246.590  9246.600  0.500  1.051783  112.750409  39.385342  3.955642
  9247.095  9247.100  0.500  1.090654  112.731114  37.877289  3.170679
  9247.597  9247.600  0.500  1.124159  112.723329  36.626681  2.604593
  9248.102  9248.100  0.500  1.149162  112.706995  35.717114  2.252451
  9248.596  9248.600  0.500  1.166635  112.693319  35.094175  2.044760
  9249.094  9249.100  0.500  1.178011  112.678639  34.692675  1.917791
  9249.592  9249.600  0.500  1.184792  112.672241  34.456281  1.827760
  9250.090  9250.100  0.500  1.187609  112.653871  34.353729  1.762723
  9250.588  9250.600  0.500  1.186312  112.651817  34.397690  1.733446
  9251.093  9251.100  0.500  1.180295  112.626657  34.597558  1.759235
  9251.588  9251.600  0.500  1.169264  112.607448  34.975368  1.861352
  9252.093  9252.100  0.500  1.153761  112.602633  35.520299  2.049701
  9252.599  9252.600  0.500  1.133941  112.587189  36.226351  2.327011
  9253.090  9253.100  0.500  1.111549  112.578398  37.043783  2.686291
  9253.599  9253.600  0.500  1.087496  112.546389  37.934835  3.119304
  9254.098  9254.100  0.500  1.064148  112.527391  38.824402  3.584587
  9254.604  9254.600  0.500  1.042116  112.531667  39.690764  4.066127
  9255.095  9255.100  0.500  1.023326  112.514210  40.437335  4.509614
  9255.601  9255.600  0.500  1.006942  112.497179  41.099115  4.912353
  9256.092  9256.100  0.500  0.993856  112.482897  41.635158  5.253127
  9256.591  9256.600  0.500  0.982298  112.466533  42.113057  5.556102
  9257.097  9257.100  0.500  0.972000  112.456617  42.545216  5.831464
  9257.592  9257.600  0.500  0.962730  112.447584  42.938007  6.076403
  9258.095  9258.100  0.500  0.954462  112.428395  43.287103  6.298751
  9258.601  9258.600  0.500  0.947311  112.413074  43.591823  6.493655
  9259.100  9259.100  0.500  0.941377  112.400876  43.846513  6.655854
  9259.603  9259.600  0.500  0.936585  112.382372  44.049861  6.791348
  9260.098  9260.100  0.500  0.932698  112.367406  44.215522  6.906044
  9260.597  9260.600  0.500  0.929842  112.351155  44.335555  6.998568
  9261.104  9261.100  0.500  0.927499  112.337745  44.434258  7.076275
  9261.596  9261.600  0.500  0.925870  112.321114  44.500129  7.134462
  9262.095  9262.100  0.500  0.924779  112.294787  44.538254  7.177587
  9262.591  9262.600  0.500  0.924122  112.285055  44.563676  7.201844
  9263.097  9263.100  0.500  0.923973  112.441438  44.632382  7.213660
  9263.601  9263.600  0.500  0.924189  112.589006  44.681304  7.202975
  9264.108  9264.100  0.500  0.924936  112.577197  44.643240  7.158712
  9264.607  9264.600  0.500  0.925743  112.556422  44.598994  7.099522
  9265.107  9265.100  0.500  0.926767  112.552450  44.551796  7.032034
  9265.607  9265.600  0.500  0.927944  112.541730  44.495123  6.963557
  9266.110  9266.100  0.500  0.928921  112.534692  44.448929  6.906858
  9266.606  9266.600  0.500  0.929708  112.515196  44.406237  6.866970
  9267.102  9267.100  0.500  0.930707  112.496854  44.354666  6.836463
  9267.595  9267.600  0.500  0.931474  112.478015  44.313267  6.823066
  9268.091  9268.100  0.500  0.931880  112.458660  44.287648  6.819427
  9268.591  9268.600  0.500  0.932326  112.450521  44.264675  6.827503
  9269.095  9269.100  0.500  0.932413  112.440813  44.257008  6.848813
  9270.095  9270.090  0.500  0.932166  112.407645  44.254879  6.921733
  9271.099  9271.090  0.500  0.931316  112.394406  44.287330  7.018554
  9272.119  9272.110  0.500  0.930217  112.363313  44.323753  7.112706
  9273.168  9273.160  0.500  0.929632  112.324150  44.334215  7.172643
  9274.225  9274.220  0.500  0.930194  112.272190  44.288810  7.166867
  9275.319  9275.300  0.500  0.931868  111.788003  44.024053  7.071525
  9276.421  9276.400  0.500  0.935612  111.709250  43.828642  6.943047
  9277.538  9277.520  0.500  0.939422  112.274995  43.883096  6.836140
  9278.674  9278.660  0.500  0.943388  112.245577  43.697929  6.693058
  9279.810  9279.810  0.500  0.947587  112.211424  43.501618  6.547123
  9281.002  9280.990  0.500  0.951964  112.180481  43.299682  6.386332
  9282.198  9282.180  0.500  0.956361  112.142256  43.095020  6.213526
  9283.421  9283.400  0.500  0.960907  112.117831  42.890210  6.028917
  9284.625  9284.630  0.500  0.965256  112.084539  42.691376  5.859966
  9285.889  9285.880  0.500  0.968625  112.051896  42.535410  5.734776
  9287.157  9287.150  0.500  0.970468  112.023946  42.446495  5.674128
  9288.455  9288.440  0.500  0.970321  111.988661  42.439379  5.684710
  9289.750  9289.750  0.500  0.968140  111.953040  42.518504  5.756138
  9291.090  9291.080  0.500  0.964029  111.865575  42.660289  5.872057
  9292.434  9292.430  0.500  0.958809  111.033022  42.564429  5.972330
  9293.805  9293.800  0.500  0.953822  111.791665  43.069486  6.155702
  9295.191  9295.180  0.500  0.948353  111.823026  43.317831  6.297758
  9296.592  9296.590  0.500  0.943915  111.747439  43.481080  6.405500
  9298.027  9298.010  0.500  0.940196  111.554123  43.567590  6.479580
  9299.459  9299.450  0.500  0.936052  108.526955  42.561331  6.381480
  9300.917  9300.910  0.500  0.934950  111.286567  43.691707  6.603566
  9302.391  9302.390  0.500  0.932035  111.730225  43.993935  6.703485
  9303.899  9303.890  0.500  0.930081  111.676007  44.058620  6.770035
  9305.422  9305.410  0.500  0.928610  111.524088  44.063445  6.817572
  9306.961  9306.950  0.500  0.928084  110.946057  43.858113  6.824689
  9308.512  9308.510  0.500  0.927362  111.606650  44.151148  6.899968
  9310.093  9310.080  0.500  0.927277  111.567604  44.139462  6.924337
  9311.693  9311.680  0.500  0.927647  111.519903  44.104235  6.941483
  9313.294  9313.290  0.500  0.928023  111.473956  44.069505  6.949923
  9314.936  9314.930  0.500  0.928619  111.430390  44.026027  6.951825
  9316.587  9316.580  0.500  0.929136  111.381022  43.983802  6.942958
  9318.257  9318.250  0.500  0.929435  111.337805  43.953578  6.926267
  9319.942  9319.940  0.500  0.929705  111.281962  43.919678  6.900270
  9321.662  9321.650  0.500  0.930083  111.223039  43.879830  6.863817
  9323.390  9323.380  0.500  0.929992  110.617407  43.644879  6.787709
  9325.138  9325.130  0.500  0.931030  111.118749  43.797194  6.766104
  9326.897  9326.890  0.500  0.931287  111.153413  43.799569  6.718946
  9328.694  9328.680  0.500  0.931556  111.104391  43.768492  6.667993
  9330.481  9330.480  0.500  0.931635  111.048133  43.742861  6.624049
  9332.322  9332.310  0.500  0.931766  111.006818  43.720874  6.590762
  9334.155  9334.150  0.500  0.931994  110.966817  43.695176  6.564430
  9336.020  9336.010  0.500  0.932403  110.919705  43.658734  6.545984
  9337.915  9337.890  0.500  0.932776  110.875402  43.625045  6.536547
  9339.800  9339.790  0.500  0.932916  110.825863  43.599414  6.534965
  9341.719  9341.710  0.500  0.932947  110.771429  43.576648  6.536932
  9343.658  9343.650  0.500  0.933040  110.727329  43.555257  6.537632
  9345.616  9345.610  0.500  0.932952  110.678467  43.539882  6.536558
  9347.587  9347.580  0.500  0.932762  110.635345  43.531165  6.532011
  9349.600  9349.580  0.500  0.932290  110.580362  43.530110  6.529780
  9351.596  9351.590  0.500  0.931745  110.529409  43.533763  6.534789
  9353.626  9353.620  0.500  0.931074  110.493169  43.548691  6.546996
  9355.698  9355.680  0.500  0.930180  110.430655  43.562986  6.564295
  9357.756  9357.750  0.500  0.929178  110.378761  43.586152  6.582064
  9359.853  9359.840  0.500  0.928087  110.330760  43.614756  6.597905
  9361.962  9361.950  0.500  0.926983  110.283229  43.644139  6.614636
  9364.092  9364.080  0.500  0.925724  110.227836  43.677165  6.628433
  9366.237  9366.220  0.500  0.924250  110.179610  43.722473  6.644027
  9368.398  9368.390  0.500  0.922621  110.121052  43.770463  6.665133
  9370.606  9370.580  0.500  0.920978  110.066080  43.820558  6.695873
  9372.781  9372.780  0.500  0.919517  110.015497  43.864433  6.736819
  9375.021  9375.000  0.500  0.918111  109.966496  43.906617  6.785634
  9377.263  9377.250  0.500  0.916925  109.923674  43.941599  6.834410
  9379.521  9379.510  0.500  0.916012  109.857768  43.955353  6.880572
  9381.810  9381.790  0.500  0.915146  109.817725  43.977392  6.926120
  9384.093  9384.090  0.500  0.914575  109.757585  43.978419  6.960142
  9386.434  9386.410  0.500  0.914160  109.697865  43.972757  6.976654
  9388.757  9388.750  0.500  0.914048  109.644042  43.956077  6.966619
  9391.119  9391.100  0.500  0.913898  109.589064  43.940644  6.941532
  9393.498  9393.480  0.500  0.914044  109.526861  43.909279  6.908572
  9395.878  9395.870  0.500  0.914217  109.492650  43.887984  6.882629
  9398.316  9398.290  0.500  0.914695  109.431839  43.842660  6.857870
  9400.737  9400.720  0.500  0.914794  109.372572  43.814576  6.837237
  9403.197  9403.170  0.500  0.914790  109.316689  43.792330  6.821711
  9405.655  9405.650  0.500  0.914791  109.254010  43.767199  6.801086
  9408.163  9408.140  0.500  0.914712  109.192989  43.746193  6.773718
  9410.650  9410.650  0.500  0.914323  109.139487  43.741795  6.743505
  9413.188  9413.170  0.500  0.913686  109.078237  43.745101  6.715684
  9415.724  9415.720  0.500  0.912836  109.020915  43.759283  6.699443
  9418.307  9418.290  0.500  0.912048  108.966468  43.771918  6.695473
  9420.883  9420.870  0.500  0.911005  108.900855  43.791212  6.710535
  9423.492  9423.480  0.500  0.909834  108.834898  43.815959  6.744513
  9426.122  9426.100  0.500  0.908687  108.782168  43.845010  6.792344
  9428.760  9428.750  0.500  0.907756  108.732717  43.865885  6.842651
  9431.439  9431.410  0.500  0.906748  108.667805  43.883921  6.883291
  9434.104  9434.090  0.500  0.906017  108.596828  43.887331  6.910925
  9436.820  9436.790  0.500  0.905322  107.995400  43.674587  6.897839
  9439.518  9439.510  0.500  0.904548  108.440834  43.888704  6.944079
  9442.276  9442.250  0.500  0.903800  108.397496  43.903992  6.950247
  9445.021  9445.000  0.500  0.903318  108.336131  43.900273  6.947120
  9447.805  9447.780  0.500  0.902716  108.284480  43.905789  6.944320
  9450.579  9450.570  0.500  0.902069  108.220334  43.908165  6.940488
  9453.413  9453.390  0.500  0.901569  108.151272  43.902083  6.937925
  9456.233  9456.220  0.500  0.900824  108.076975  43.904646  6.935520
  9459.098  9459.070  0.500  0.900192  108.010781  43.905473  6.930831
  9461.968  9461.950  0.500  0.899454  107.936947  43.907858  6.926626
  9464.863  9464.840  0.500  0.898655  107.883885  43.921328  6.929068
  9467.772  9467.750  0.500  0.897730  107.808719  43.931347  6.944421
  9470.694  9470.670  0.500  0.896870  107.745535  43.943383  6.968959
  9473.641  9473.620  0.500  0.895891  107.677370  43.958589  6.997048
  9476.613  9476.590  0.500  0.894897  107.594140  43.968312  7.025748
  9479.591  9479.570  0.500  0.893852  107.523334  43.985318  7.054994
  9482.609  9482.580  0.500  0.892877  107.457815  44.001410  7.079226
  9485.630  9485.600  0.500  0.892021  107.393472  44.012715  7.096285
  9488.668  9488.650  0.500  0.891177  107.312738  44.016748  7.102843
  9491.735  9491.710  0.500  0.890419  107.244670  44.022203  7.104491
  9494.832  9494.790  0.500  0.889835  107.167703  44.016316  7.099709
  9497.876  9497.890  0.500  0.889356  107.083345  44.002708  7.088914
  9501.000  9501.010  0.500  0.888725  107.006867  43.999066  7.081176
  9504.138  9504.150  0.500  0.888173  106.914958  43.985535  7.074323
  9507.290  9507.300  0.500  0.887757  106.844337  43.974764  7.070975
  9510.475  9510.480  0.500  0.887231  106.766788  43.965958  7.067132
  9513.666  9513.670  0.500  0.886553  106.681806  43.960756  7.063758
  9516.887  9516.890  0.500  0.885775  106.608397  43.964692  7.066826
  9520.126  9520.120  0.500  0.884921  106.534416  43.971741  7.074250
  9523.382  9523.370  0.500  0.884054  106.449627  43.974844  7.085862
  9526.665  9526.650  0.500  0.883091  106.372250  43.985206  7.098684
  9529.953  9529.940  0.500  0.882009  106.286507  43.997329  7.110301
  9533.256  9533.250  0.500  0.881156  106.214115  44.004889  7.124945
  9536.581  9536.570  0.500  0.880068  106.126967  44.016652  7.142113
  9539.943  9539.920  0.500  0.879073  106.055750  44.030915  7.164942
  9543.304  9543.290  0.500  0.878015  105.978390  44.045361  7.187916
  9546.687  9546.670  0.500  0.877019  105.896569  44.055202  7.213878
  9550.096  9550.080  0.500  0.876078  105.800097  44.056521  7.240015
  9553.511  9553.500  0.500  0.874993  105.733852  44.076716  7.260084
  9556.965  9556.950  0.500  0.874054  105.652317  44.084109  7.268197
  9560.425  9560.410  0.500  0.873060  105.562943  44.090641  7.276120
  9563.911  9563.890  0.500  0.872241  105.491490  44.096876  7.283166
  9567.404  9567.390  0.500  0.871372  105.397600  44.095954  7.285390
  9570.927  9570.910  0.500  0.870488  105.315489  44.100550  7.288334
  9574.465  9574.450  0.500  0.869617  105.223869  44.100599  7.293107
  9578.021  9578.000  0.500  0.868645  105.133592  44.105613  7.302717
  9581.595  9581.580  0.500  0.867723  105.051362  44.111755  7.315783
  9585.205  9585.180  0.500  0.866683  104.962531  44.120299  7.333364
  9588.805  9588.790  0.500  0.865677  104.869064  44.125387  7.351921
  9592.443  9592.420  0.500  0.864703  104.786686  44.133697  7.367542
  9596.097  9596.080  0.500  0.863749  104.697438  44.138216  7.379228
  9599.761  9599.750  0.500  0.862748  104.606855  44.144198  7.390465
  9603.464  9603.440  0.500  0.861694  104.515918  44.152336  7.401414
  9607.165  9607.150  0.500  0.860667  104.421539  44.157757  7.410354
  9610.898  9610.880  0.500  0.859680  104.340461  44.167048  7.418834
  9614.634  9614.620  0.500  0.858755  104.247201  44.168438  7.427183
  9618.408  9618.390  0.500  0.857989  104.107961  44.143213  7.434568
  9622.194  9622.180  0.500  0.857285  104.048390  44.149031  7.451615
  9626.010  9625.980  0.500  0.855946  103.956356  44.169080  7.470124
  9629.822  9629.810  0.500  0.854972  103.869932  44.175381  7.483137
  9633.681  9633.650  0.500  0.854003  103.652554  44.125640  7.482654
  9637.527  9637.510  0.500  0.853170  103.662291  44.166590  7.495625
  9641.416  9641.390  0.500  0.852163  103.591248  44.180766  7.504706
  9645.313  9645.290  0.500  0.851107  103.468994  44.175257  7.508100
  9649.236  9649.210  0.500  0.850318  103.172077  44.083260  7.500943
  9653.180  9653.150  0.500  0.849226  103.293029  44.183157  7.527361
  9657.134  9657.110  0.500  0.848019  103.202211  44.197637  7.540910
  9661.100  9661.080  0.500  0.847041  103.099398  44.196828  7.555817
  9665.094  9665.080  0.500  0.846002  102.983511  44.193003  7.569105
  9669.111  9669.090  0.500  0.844833  102.870599  44.196181  7.583616
  9673.139  9673.130  0.500  0.843657  102.783243  44.210615  7.600922
  9677.204  9677.180  0.500  0.842471  102.858062  44.295339  7.632932
  9681.276  9681.250  0.500  0.841639  102.969612  44.380261  7.666285
  9685.363  9685.340  0.500  0.840466  102.869178  44.389006  7.683010
  9689.471  9689.450  0.500  0.839380  102.772104  44.395318  7.702761
  9693.590  9693.580  0.500  0.838151  102.673091  44.407096  7.723637
  9697.765  9697.730  0.500  0.837111  102.561882  44.405132  7.745222
  9701.903  9701.890  0.500  0.836232  102.458290  44.399283  7.762790
  9706.102  9706.080  0.500  0.835085  102.339288  44.398635  7.779369
  9710.309  9710.280  0.500  0.834366  101.090822  43.888527  7.701796
  9714.540  9714.510  0.500  0.832739  102.180170  44.433742  7.803344
  9718.787  9718.750  0.500  0.831645  102.060482  44.430268  7.807779
  9723.026  9723.010  0.500  0.830679  101.944587  44.422705  7.809552
  9727.321  9727.290  0.500  0.829388  101.827889  44.429172  7.814234
  9731.608  9731.590  0.500  0.828325  101.742944  44.439311  7.821016
  9735.936  9735.910  0.500  0.827184  101.637010  44.443726  7.831018
  9740.271  9740.250  0.500  0.826058  101.533984  44.448708  7.846240
  9744.628  9744.610  0.500  0.824934  101.410102  44.444376  7.859077
  9749.021  9748.990  0.500  0.823840  101.293063  44.441673  7.873533
  9753.393  9753.380  0.500  0.822629  101.192161  44.451215  7.886184
  9757.823  9757.800  0.500  0.821391  101.066887  44.451199  7.894296
  9762.253  9762.230  0.500  0.820360  100.971325  44.454951  7.903820
  9766.703  9766.680  0.500  0.819281  100.842270  44.446079  7.904254
  9771.174  9771.150  0.500  0.818140  100.614672  44.396385  7.914430
  9775.662  9775.640  0.500  0.817110  100.661322  44.462740  7.943128
  9780.187  9780.150  0.500  0.815890  100.500160  44.445758  7.957988
  9784.712  9784.680  0.500  0.815381  100.081414  44.283073  7.954520
  9789.262  9789.230  0.500  0.813879  100.277360  44.436487  8.004951
