# XDI/1.0 BlueSky/1.10.0 BMM/2023-1.0-py310-tiled
# Beamline.name: BMM (06BM) -- Beamline for Materials Measurement (NIST)
# Beamline.xray_source: NSLS-II three-pole wiggler
# Beamline.collimation: paraboloid mirror, 5 nm Rh on 30 nm Pt
# Beamline.focusing: not in use
# Beamline.harmonic_rejection: flat mirror, Pt stripe, pitch = 7.0 mrad relative to beam
# Beamline.software: Bluesky 1.10.0, Ophyd 1.7.0, DataBroker 2.0.0b13, Python 3.10.8, 2023-1.0-py310-tiled
# Detector.I0: 10 cm N2
# Detector.I1: 25 cm N2
# Detector.I2: 25 cm N2
# Element.symbol: Pb
# Element.edge: L1
# Element.reference: Pb
# Element.reference_material: Pb foil
# Facility.name: NSLS-II
# Facility.energy: 3.0
# Facility.current: 399.2
# Facility.mode: top-off
# Facility.GUP: 301027
# Facility.SAF: 310583
# Facility.cycle: 2023-2
# Mono.name: Si(111)
# Mono.d_spacing: 3.1351860
# Mono.encoder_resolution: 0.0000050 deg/ct
# Mono.angle_offset: 16.0754326 deg
# Mono.scan_mode: pseudo channel cut
# Mono.scan_type: step
# Mono.direction: forward in energy
# Sample.name: PbS2
# Sample.prep: powder on tape
# Sample.x: 143.785 mm
# Sample.y: 114.695 mm
# Sample.SDD_position: 205.000 mm
# Scan.experimenters: Bruce Ravel
# Scan.edge_energy: 15860.8
# Scan.start_time: 2023-06-23T18:12:36
# Scan.end_time: 2023-06-23T18:21:04
# Scan.transient_id: 84926
# Scan.uid: c3effb82-334f-41ff-9cca-50278b76da4f
# Scan.plot_hint: ln(I0/It)  --  ln($5/$6)
# Column.1: energy eV
# Column.2: requested_energy eV
# Column.3: measurement_time seconds
# Column.4: xmu 
# Column.5: I0 nA
# Column.6: It nA
# Column.7: Ir nA
# ///////////
# BMM standards collection
# -----------
# energy  requested_energy  measurement_time  xmu  I0  It  Ir
  15660.752  15660.800  0.500  0.335755  24.711682  17.663874  4.935482
  15670.873  15670.800  0.500  0.334202  24.562898  17.584803  4.921974
  15680.868  15680.800  0.500  0.333069  24.575351  17.613668  4.940369
  15690.865  15690.800  0.500  0.331709  24.537960  17.610808  4.948700
  15700.853  15700.800  0.500  0.330077  24.470395  17.590989  4.950553
  15710.876  15710.800  0.500  0.328895  24.400873  17.561763  4.951042
  15720.900  15720.800  0.500  0.327558  24.354919  17.552133  4.957226
  15730.927  15730.800  0.500  0.326080  24.288868  17.530422  4.959619
  15740.825  15740.800  0.500  0.324773  24.237468  17.516205  4.963370
  15750.856  15750.800  0.500  0.323521  24.168080  17.487946  4.963090
  15760.889  15760.800  0.500  0.322317  24.112758  17.468942  4.964803
  15770.869  15770.800  0.500  0.321275  24.059627  17.448621  4.964798
  15780.851  15780.800  0.500  0.320260  24.007204  17.428281  4.965643
  15790.878  15790.800  0.500  0.319252  23.943411  17.399500  4.963561
  15800.919  15800.800  0.500  0.318524  23.887251  17.371319  4.957625
  15810.742  15810.800  0.500  0.318040  23.829114  17.337435  4.951753
  15820.764  15820.800  0.500  0.318283  23.767822  17.288637  4.935809
  15830.777  15830.800  0.500  0.319442  23.763496  17.265476  4.921157
  15832.730  15832.800  0.500  0.319716  23.790129  17.280078  4.920778
  15834.728  15834.800  0.500  0.320450  23.788178  17.265984  4.914855
  15836.705  15836.800  0.500  0.321070  23.779004  17.248628  4.903303
  15838.715  15838.800  0.500  0.322005  23.763780  17.221475  4.889931
  15840.736  15840.800  0.500  0.323195  23.749191  17.190441  4.872642
  15842.769  15842.800  0.500  0.324588  23.735367  17.156513  4.852636
  15844.726  15844.800  0.500  0.326602  23.721030  17.111654  4.827611
  15846.727  15846.800  0.500  0.328946  23.703263  17.058812  4.795115
  15848.729  15848.800  0.500  0.332784  23.698577  16.990099  4.754595
  15850.720  15850.800  0.500  0.337443  23.674939  16.894269  4.697436
  15851.006  15851.100  0.500  0.338255  23.669237  16.876479  4.688505
  15851.314  15851.400  0.500  0.339364  23.668664  16.857375  4.676056
  15851.611  15851.700  0.500  0.340218  23.665418  16.840675  4.667372
  15851.908  15852.000  0.500  0.341021  23.662287  16.824932  4.656489
  15852.238  15852.300  0.500  0.342036  23.656679  16.803867  4.642277
  15852.535  15852.600  0.500  0.343330  23.659077  16.783843  4.631555
  15852.799  15852.900  0.500  0.344562  23.660868  16.764449  4.620140
  15853.130  15853.200  0.500  0.345587  23.658616  16.745682  4.606481
  15853.460  15853.500  0.500  0.347089  23.658096  16.720178  4.591492
  15853.768  15853.800  0.500  0.348176  23.656310  16.700760  4.576541
  15854.043  15854.100  0.500  0.349600  23.652043  16.673986  4.562423
  15854.362  15854.400  0.500  0.351300  23.657554  16.649533  4.546472
  15854.659  15854.700  0.500  0.352703  23.654291  16.623903  4.528941
  15854.946  15855.000  0.500  0.354386  23.655726  16.596953  4.512614
  15855.276  15855.300  0.500  0.356355  23.657113  16.565285  4.491815
  15855.584  15855.600  0.500  0.358297  23.653466  16.530598  4.472062
  15855.870  15855.900  0.500  0.360150  23.649932  16.497517  4.451772
  15856.168  15856.200  0.500  0.362414  23.653866  16.462957  4.429955
  15856.476  15856.500  0.500  0.364608  23.651336  16.425109  4.406035
  15856.751  15856.800  0.500  0.366850  23.648188  16.386145  4.381629
  15857.059  15857.100  0.500  0.369336  23.639322  16.339339  4.354668
  15857.390  15857.400  0.500  0.372220  23.642559  16.294514  4.327171
  15857.687  15857.700  0.500  0.374915  23.639919  16.248846  4.300713
  15857.962  15858.000  0.500  0.377599  23.636638  16.203049  4.272370
  15858.271  15858.300  0.500  0.380677  23.630810  16.149257  4.241469
  15858.579  15858.600  0.500  0.383824  23.632295  16.099531  4.210759
  15858.854  15858.900  0.500  0.386934  23.629617  16.047717  4.181015
  15859.174  15859.200  0.500  0.390187  23.626383  15.993416  4.147689
  15859.482  15859.500  0.500  0.393855  23.627991  15.935946  4.114175
  15859.758  15859.800  0.500  0.397133  23.623946  15.881077  4.083554
  15860.077  15860.100  0.500  0.400849  23.619439  15.819155  4.048536
  15860.352  15860.400  0.500  0.404421  23.623340  15.765352  4.016485
  15860.661  15860.700  0.500  0.407626  23.622087  15.714070  3.985739
  15860.958  15861.000  0.500  0.411245  23.617051  15.653958  3.952228
  15861.289  15861.300  0.500  0.414805  23.611616  15.594747  3.920585
  15861.553  15861.600  0.500  0.418044  23.616460  15.547504  3.892783
  15861.873  15861.900  0.500  0.421205  23.615883  15.498058  3.863795
  15862.192  15862.200  0.500  0.423962  23.610817  15.452073  3.837447
  15862.457  15862.500  0.500  0.426566  23.611241  15.412164  3.817406
  15862.798  15862.800  0.500  0.429053  23.607961  15.371743  3.793515
  15863.096  15863.100  0.500  0.431092  23.601392  15.336156  3.771791
  15863.371  15863.400  0.500  0.432834  23.603365  15.310755  3.759166
  15863.702  15863.700  0.500  0.434378  23.600820  15.285488  3.742770
  15864.010  15864.000  0.500  0.435449  23.602224  15.270028  3.732914
  15864.286  15864.300  0.500  0.436414  23.594313  15.250184  3.723308
  15864.627  15864.600  0.500  0.437013  23.595843  15.242046  3.716756
  15864.914  15864.900  0.500  0.437261  23.594736  15.237549  3.712131
  15865.201  15865.200  0.500  0.437138  23.591180  15.237132  3.710685
  15865.509  15865.500  0.500  0.436916  23.588489  15.238775  3.709902
  15865.796  15865.800  0.500  0.436495  23.591881  15.247387  3.712168
  15866.093  15866.100  0.500  0.435865  23.587339  15.254045  3.713667
  15866.424  15866.400  0.500  0.435104  23.580843  15.261461  3.718065
  15866.711  15866.700  0.500  0.434149  23.577173  15.273659  3.724391
  15866.986  15867.000  0.500  0.433068  23.578929  15.291329  3.730769
  15867.328  15867.300  0.500  0.431882  23.579514  15.309853  3.739088
  15867.604  15867.600  0.500  0.430518  23.574551  15.327524  3.747225
  15867.879  15867.900  0.500  0.429322  23.571747  15.344029  3.755688
  15868.199  15868.200  0.500  0.427839  23.570393  15.365924  3.765347
  15868.497  15868.500  0.500  0.426756  23.572910  15.384225  3.773816
  15868.784  15868.800  0.500  0.425485  23.565029  15.398640  3.781888
  15869.103  15869.100  0.500  0.424240  23.562629  15.416244  3.791267
  15869.368  15869.400  0.500  0.423012  23.560263  15.433639  3.798150
  15869.699  15869.700  0.500  0.421642  23.556722  15.452482  3.808204
  15869.997  15870.000  0.500  0.420528  23.554716  15.468388  3.816022
  15870.261  15870.300  0.500  0.419705  23.555781  15.481824  3.822971
  15870.581  15870.600  0.500  0.418460  23.551623  15.498367  3.829654
  15870.868  15870.900  0.500  0.417660  23.552004  15.511019  3.836821
  15871.166  15871.200  0.500  0.416825  23.543015  15.518058  3.842141
  15871.508  15871.500  0.500  0.415925  23.547146  15.534755  3.849461
  15871.784  15871.800  0.500  0.415196  23.547995  15.546643  3.854137
  15872.092  15872.100  0.500  0.414619  23.543766  15.552824  3.857726
  15872.412  15872.400  0.500  0.413879  23.538112  15.560604  3.862058
  15872.677  15872.700  0.500  0.413231  23.537248  15.570119  3.865215
  15873.008  15873.000  0.500  0.412743  23.532089  15.574304  3.868260
  15873.317  15873.300  0.500  0.412151  23.529786  15.582000  3.869846
  15873.593  15873.600  0.500  0.411726  23.525271  15.585627  3.872644
  15873.913  15873.900  0.500  0.411290  23.525370  15.592497  3.874958
  15874.211  15874.200  0.500  0.410932  23.523628  15.596922  3.875986
  15874.498  15874.500  0.500  0.410573  23.526388  15.604352  3.877349
  15874.829  15874.800  0.500  0.410320  23.523977  15.606699  3.877632
  15875.105  15875.100  0.500  0.409998  23.521358  15.609987  3.877218
  15875.392  15875.400  0.500  0.409533  23.519796  15.616217  3.877964
  15875.701  15875.700  0.500  0.409391  23.520389  15.618825  3.879051
  15876.010  15876.000  0.500  0.409008  23.511271  15.618749  3.878325
  15876.308  15876.300  0.500  0.408806  23.514433  15.624001  3.878175
  15876.628  15876.600  0.500  0.408561  23.508757  15.624054  3.877984
  15876.904  15876.900  0.500  0.408354  23.510355  15.628363  3.877460
  15877.191  15877.200  0.500  0.408152  23.511018  15.631954  3.878087
  15877.489  15877.500  0.500  0.407885  23.507429  15.633745  3.876396
  15877.798  15877.800  0.500  0.407510  23.502338  15.636214  3.876114
  15878.085  15878.100  0.500  0.407475  23.507241  15.640031  3.876528
  15878.405  15878.400  0.500  0.407336  23.503380  15.639635  3.876055
  15878.692  15878.700  0.500  0.407087  23.504035  15.643961  3.875506
  15878.968  15879.000  0.500  0.406688  23.496819  15.645406  3.874912
  15879.277  15879.300  0.500  0.406735  23.500622  15.647195  3.875186
  15879.587  15879.600  0.500  0.406333  23.490787  15.646934  3.874653
  15879.874  15879.900  0.500  0.405992  23.494118  15.654490  3.875369
  15880.183  15880.200  0.500  0.405934  23.493690  15.655123  3.876104
  15880.481  15880.500  0.500  0.405662  23.488951  15.656215  3.876316
  15880.757  15880.800  0.500  0.405584  23.490194  15.658273  3.878455
  15881.089  15881.100  0.500  0.405321  23.483421  15.657868  3.877647
  15881.387  15881.400  0.500  0.405264  23.478918  15.655755  3.877981
  15881.696  15881.700  0.500  0.405058  23.482795  15.661565  3.879253
  15882.005  15882.000  0.500  0.404884  23.478891  15.661695  3.879589
  15882.303  15882.300  0.500  0.404900  23.479246  15.661680  3.881428
  15882.580  15882.600  0.500  0.404659  23.473729  15.661777  3.882092
  15882.900  15882.900  0.500  0.404591  23.468992  15.659672  3.882562
  15883.198  15883.200  0.500  0.404495  23.465224  15.658671  3.882885
  15883.508  15883.500  0.500  0.404661  23.469590  15.658975  3.885638
  15883.817  15883.800  0.500  0.404491  23.464417  15.658186  3.884821
  15884.115  15884.100  0.500  0.404527  23.457891  15.653267  3.886458
  15884.403  15884.400  0.500  0.404696  23.458409  15.650972  3.888039
  15884.723  15884.700  0.500  0.404880  23.459548  15.648848  3.888559
  15885.021  15885.000  0.500  0.404871  23.454973  15.645940  3.890693
  15885.286  15885.300  0.500  0.405175  23.454290  15.640737  3.890946
  15885.596  15885.600  0.500  0.405210  23.455524  15.641004  3.891602
  15885.839  15885.800  0.500  0.405459  23.451001  15.634089  3.891234
  15886.845  15886.790  0.500  0.405624  23.445741  15.628007  3.893313
  15887.806  15887.790  0.500  0.406388  23.439031  15.611613  3.893718
  15888.834  15888.810  0.500  0.406858  23.431775  15.599447  3.893331
  15889.885  15889.860  0.500  0.407355  23.426667  15.588291  3.894050
  15890.924  15890.920  0.500  0.407858  23.417953  15.574651  3.891810
  15892.008  15892.000  0.500  0.407839  23.411858  15.570898  3.889863
  15893.103  15893.100  0.500  0.407755  23.402643  15.566075  3.887958
  15894.231  15894.220  0.500  0.407739  23.394588  15.560967  3.884445
  15895.393  15895.360  0.500  0.407579  23.385873  15.557666  3.880745
  15896.544  15896.510  0.500  0.407582  23.380902  15.554309  3.878019
  15897.728  15897.690  0.500  0.407668  23.377251  15.550542  3.872754
  15898.890  15898.880  0.500  0.407768  23.367493  15.542490  3.867574
  15900.086  15900.100  0.500  0.408084  23.361285  15.533453  3.863569
  15901.315  15901.330  0.500  0.408204  23.348678  15.523210  3.857263
  15902.577  15902.580  0.500  0.408861  23.345032  15.510600  3.854505
  15903.840  15903.850  0.500  0.408787  23.333269  15.503928  3.853006
  15905.169  15905.140  0.500  0.408655  23.319416  15.496771  3.851982
  15906.476  15906.450  0.500  0.408192  23.308918  15.496962  3.855058
  15907.795  15907.780  0.500  0.407425  23.297957  15.501565  3.861165
  15909.147  15909.130  0.500  0.406598  23.285451  15.506054  3.864321
  15910.510  15910.500  0.500  0.405499  23.223392  15.481733  3.862365
  15911.885  15911.880  0.500  0.404702  23.066648  15.389505  3.845030
  15913.304  15913.290  0.500  0.403886  23.104555  15.427378  3.859142
  15914.724  15914.710  0.500  0.402744  23.239739  15.535375  3.888646
  15916.166  15916.150  0.500  0.402289  23.269561  15.562396  3.898507
  15917.642  15917.610  0.500  0.401638  23.261364  15.567034  3.898760
  15919.129  15919.090  0.500  0.401062  23.248439  15.567346  3.898713
  15920.594  15920.590  0.500  0.400643  23.240305  15.568423  3.899185
  15922.126  15922.110  0.500  0.400365  23.229278  15.565370  3.897682
  15923.658  15923.650  0.500  0.400277  23.218763  15.559692  3.895837
  15925.202  15925.210  0.500  0.400354  23.211904  15.553899  3.893208
  15926.812  15926.780  0.500  0.400734  23.198050  15.538702  3.889180
  15928.401  15928.380  0.500  0.401076  23.191816  15.529223  3.886878
  15930.023  15929.990  0.500  0.401628  23.180118  15.512826  3.883570
  15931.624  15931.630  0.500  0.402161  23.169447  15.497418  3.880287
  15933.324  15933.280  0.500  0.402391  23.155949  15.484831  3.877738
  15934.914  15934.950  0.500  0.402424  23.139829  15.473539  3.876662
  15936.649  15936.640  0.500  0.402717  23.134332  15.465337  3.877077
  15938.284  15938.350  0.500  0.402507  23.122167  15.460451  3.879389
  15940.087  15940.080  0.500  0.402178  23.112883  15.459325  3.881476
  15941.790  15941.830  0.500  0.401475  23.099637  15.461333  3.882901
  15943.604  15943.590  0.500  0.400976  23.083672  15.458348  3.885529
  15945.352  15945.380  0.500  0.400536  23.066180  15.453439  3.887237
  15947.134  15947.180  0.500  0.400079  23.048878  15.448903  3.887889
  15948.960  15949.010  0.500  0.399421  22.913136  15.368029  3.868927
  15950.810  15950.850  0.500  0.398789  22.852962  15.337368  3.863507
  15952.682  15952.710  0.500  0.398473  23.016652  15.452103  3.893319
  15955.168  15954.590  0.500  0.398014  23.023412  15.463738  3.897533
  15956.383  15956.490  0.500  0.397733  23.091174  15.513611  3.912082
  15958.435  15958.410  0.500  0.397086  23.063875  15.505297  3.910312
  15960.231  15960.350  0.500  0.396585  23.054575  15.506802  3.911430
  15962.205  15962.310  0.500  0.396065  23.030278  15.498519  3.910019
  15964.359  15964.280  0.500  0.395620  23.024725  15.501678  3.913766
  15966.424  15966.280  0.500  0.395159  23.013415  15.501206  3.913935
  15968.200  15968.290  0.500  0.394773  23.002294  15.499707  3.914540
  15970.244  15970.320  0.500  0.394511  22.983158  15.490874  3.913934
  15972.321  15972.380  0.500  0.393985  22.969880  15.490068  3.916665
  15974.377  15974.450  0.500  0.393793  22.957485  15.484684  3.916375
  15976.479  15976.540  0.500  0.393421  22.947956  15.484009  3.918378
  15978.592  15978.650  0.500  0.393522  22.938020  15.475741  3.918180
  15980.716  15980.780  0.500  0.393171  22.914285  15.465155  3.916450
  15982.842  15982.920  0.500  0.392985  22.891895  15.452917  3.916498
  15985.024  15985.090  0.500  0.392871  22.736615  15.349842  3.893019
  15987.240  15987.280  0.500  0.392908  22.755792  15.362223  3.898865
  15989.434  15989.480  0.500  0.392575  22.881108  15.451968  3.922946
  15991.662  15991.700  0.500  0.392564  22.869116  15.444043  3.922232
  15993.903  15993.950  0.500  0.392106  22.855612  15.441996  3.923699
  15996.166  15996.210  0.500  0.391851  22.843749  15.437912  3.925493
  15998.441  15998.490  0.500  0.391426  22.830653  15.435616  3.925828
  16000.751  16000.790  0.500  0.390953  22.809871  15.428865  3.926832
  16003.072  16003.110  0.500  0.390221  22.796499  15.431114  3.929416
  16005.405  16005.450  0.500  0.389820  22.784259  15.429018  3.930627
  16007.762  16007.800  0.500  0.389451  22.773564  15.427472  3.932362
  16010.130  16010.180  0.500  0.388783  22.757668  15.427001  3.934472
  16012.544  16012.570  0.500  0.388297  22.743452  15.424850  3.936155
  16014.993  16014.990  0.500  0.387776  22.724350  15.419937  3.937492
  16017.397  16017.420  0.500  0.387352  22.711045  15.417433  3.938670
  16019.880  16019.870  0.500  0.387003  22.686460  15.406131  3.938365
  16022.309  16022.350  0.500  0.386576  22.655732  15.391837  3.936860
  16024.816  16024.840  0.500  0.386279  22.442589  15.251557  3.902465
  16027.336  16027.350  0.500  0.385651  22.556646  15.338693  3.927160
  16029.845  16029.870  0.500  0.385297  22.602397  15.375255  3.938196
  16032.400  16032.420  0.500  0.384769  22.613274  15.390775  3.945456
  16035.012  16034.990  0.500  0.384282  22.616785  15.400664  3.948224
  16037.547  16037.570  0.500  0.383914  22.605715  15.398786  3.950498
  16040.183  16040.180  0.500  0.383551  22.591824  15.394911  3.951068
  16042.820  16042.800  0.500  0.383173  22.578382  15.391575  3.951385
  16045.425  16045.450  0.500  0.382921  22.560457  15.383229  3.950755
  16048.075  16048.110  0.500  0.382786  22.543058  15.373433  3.951168
  16050.782  16050.790  0.500  0.382326  22.529394  15.371182  3.952044
  16053.480  16053.490  0.500  0.382165  22.512214  15.361941  3.952384
  16056.234  16056.210  0.500  0.381704  22.494339  15.356816  3.953106
  16058.956  16058.950  0.500  0.381345  22.475649  15.349568  3.953615
  16061.701  16061.700  0.500  0.380998  22.459183  15.343652  3.954024
  16064.504  16064.480  0.500  0.380528  22.443720  15.340286  3.957285
  16067.251  16067.270  0.500  0.380144  22.430893  15.337413  3.958732
  16070.067  16070.090  0.500  0.379596  22.413337  15.333802  3.960265
  16072.895  16072.920  0.500  0.379160  22.396337  15.328856  3.960912
  16075.769  16075.770  0.500  0.378580  22.333404  15.294660  3.953483
  16078.668  16078.650  0.500  0.378167  22.338133  15.304216  3.958606
  16081.544  16081.540  0.500  0.377744  22.352454  15.320504  3.964279
  16084.490  16084.450  0.500  0.377060  22.326757  15.313361  3.965070
  16087.369  16087.370  0.500  0.376528  22.314833  15.313325  3.966973
  16090.316  16090.320  0.500  0.376277  22.298797  15.306167  3.968579
  16093.277  16093.290  0.500  0.375727  22.278858  15.300898  3.968661
  16096.283  16096.270  0.500  0.375263  22.261942  15.296373  3.969352
  16099.302  16099.280  0.500  0.374808  22.231402  15.282336  3.967957
  16102.323  16102.300  0.500  0.374551  22.219730  15.278236  3.969526
  16105.344  16105.350  0.500  0.373903  22.211849  15.282717  3.973859
  16108.389  16108.410  0.500  0.373515  22.192641  15.275429  3.974086
  16111.493  16111.490  0.500  0.372813  22.174109  15.273398  3.976262
  16114.597  16114.590  0.500  0.372496  22.160328  15.268739  3.977164
  16117.703  16117.710  0.500  0.371994  22.137596  15.260737  3.977668
  16120.856  16120.850  0.500  0.371543  22.110773  15.249118  3.976935
  16123.987  16124.000  0.500  0.370937  22.047444  15.214656  3.971142
  16127.176  16127.180  0.500  0.370412  22.083915  15.247840  3.982379
  16130.377  16130.370  0.500  0.370012  22.063546  15.239870  3.983696
  16133.615  16133.590  0.500  0.369420  22.047478  15.237790  3.985294
  16136.842  16136.820  0.500  0.368988  22.029769  15.232118  3.985964
  16140.048  16140.070  0.500  0.368598  22.009456  15.224016  3.987104
  16143.334  16143.350  0.500  0.368073  21.980228  15.211789  3.986354
  16146.646  16146.640  0.500  0.367655  21.940091  15.190350  3.983791
  16149.935  16149.950  0.500  0.366951  21.951548  15.208983  3.991808
  16153.283  16153.270  0.500  0.366526  21.928606  15.199551  3.992069
  16156.621  16156.620  0.500  0.365983  21.913282  15.197182  3.993013
  16159.984  16159.990  0.500  0.365383  21.886534  15.187741  3.994614
  16163.416  16163.370  0.500  0.364988  21.870710  15.182750  3.995329
  16166.804  16166.780  0.500  0.364376  21.847926  15.176221  3.996839
  16170.228  16170.200  0.500  0.363827  21.840653  15.179505  4.000132
  16173.642  16173.650  0.500  0.363348  21.755337  15.127452  3.989324
  16177.091  16177.110  0.500  0.362723  21.799933  15.167941  4.002751
  16180.623  16180.590  0.500  0.361992  21.780078  15.165212  4.005127
  16184.098  16184.090  0.500  0.361506  21.759774  15.158430  4.005891
  16187.621  16187.610  0.500  0.360896  21.739428  15.153503  4.007494
  16191.158  16191.150  0.500  0.360238  21.718158  15.148631  4.009284
  16194.718  16194.700  0.500  0.359718  21.694699  15.140140  4.009167
  16198.303  16198.280  0.500  0.359193  21.659837  15.123760  4.008925
  16201.902  16201.880  0.500  0.358669  21.654061  15.127653  4.012633
  16205.490  16205.490  0.500  0.358389  21.638361  15.120905  4.014202
  16209.114  16209.120  0.500  0.357851  21.621716  15.117418  4.015703
  16212.764  16212.780  0.500  0.357136  21.595392  15.109811  4.015787
  16216.484  16216.450  0.500  0.356664  21.582954  15.108234  4.019082
  16220.171  16220.140  0.500  0.355909  21.559249  15.103036  4.021191
  16223.848  16223.850  0.500  0.355407  21.536360  15.094582  4.022348
  16227.573  16227.580  0.500  0.354791  21.514795  15.088759  4.022853
  16231.311  16231.320  0.500  0.354113  21.482480  15.076312  4.022564
  16235.098  16235.090  0.500  0.353568  21.427400  15.045850  4.017580
  16238.920  16238.880  0.500  0.352969  21.438861  15.062929  4.025327
  16242.687  16242.680  0.500  0.352467  21.430586  15.064669  4.029339
  16246.502  16246.510  0.500  0.351969  21.406829  15.055459  4.031041
  16250.365  16250.350  0.500  0.351295  21.381950  15.048102  4.030394
  16254.218  16254.210  0.500  0.350539  21.332982  15.025000  4.027733
  16258.119  16258.090  0.500  0.349933  21.334164  15.034943  4.032303
  16261.964  16261.990  0.500  0.349617  21.315887  15.026811  4.035246
  16265.950  16265.910  0.500  0.348965  21.293521  15.020827  4.035645
  16269.869  16269.850  0.500  0.348333  21.269134  15.013115  4.037417
  16273.847  16273.810  0.500  0.347574  21.258114  15.016722  4.041123
  16277.770  16277.780  0.500  0.347129  21.232911  15.005594  4.042520
  16281.798  16281.780  0.500  0.346519  21.211606  14.999684  4.043547
  16285.806  16285.790  0.500  0.345961  21.190992  14.993473  4.044761
  16289.885  16289.830  0.500  0.345161  21.163215  14.985801  4.045566
  16293.897  16293.880  0.500  0.344565  21.142672  14.980192  4.046960
  16297.945  16297.950  0.500  0.343955  21.117089  14.971183  4.047428
  16302.066  16302.040  0.500  0.343396  21.094088  14.963240  4.049788
  16306.176  16306.150  0.500  0.342767  21.021510  14.921136  4.040344
  16310.289  16310.280  0.500  0.342153  21.052930  14.952628  4.052605
  16314.416  16314.430  0.500  0.341445  21.025114  14.943438  4.053775
  16318.626  16318.590  0.500  0.340759  21.000713  14.936341  4.054807
  16322.804  16322.780  0.500  0.340222  20.986668  14.934368  4.057742
  16326.984  16326.980  0.500  0.339672  20.955964  14.920734  4.058620
  16331.236  16331.210  0.500  0.339002  20.930120  14.912307  4.058877
  16335.443  16335.450  0.500  0.338182  20.906245  14.907521  4.059165
  16339.711  16339.710  0.500  0.337699  20.885079  14.899629  4.061467
  16344.028  16343.990  0.500  0.336981  20.864810  14.895857  4.063601
  16348.313  16348.290  0.500  0.336427  20.841375  14.887377  4.064401
  16352.611  16352.610  0.500  0.335902  20.805425  14.869496  4.063271
  16356.970  16356.950  0.500  0.335013  20.787448  14.869865  4.066960
  16361.320  16361.310  0.500  0.334322  20.766762  14.865331  4.068335
  16365.708  16365.690  0.500  0.333883  20.746589  14.857412  4.070280
  16370.097  16370.080  0.500  0.333092  20.697035  14.833659  4.067009
  16374.548  16374.500  0.500  0.332446  20.631159  14.795996  4.061917
  16378.943  16378.930  0.500  0.331882  20.662165  14.826596  4.072597
  16383.375  16383.380  0.500  0.331400  20.688470  14.852629  4.083584
  16387.868  16387.850  0.500  0.330818  20.678480  14.854088  4.088022
  16392.341  16392.340  0.500  0.329989  20.651526  14.847031  4.089581
  16396.874  16396.850  0.500  0.329203  20.625069  14.839670  4.090221
  16401.375  16401.380  0.500  0.328524  20.578899  14.816516  4.086893
  16405.973  16405.930  0.500  0.327836  20.566640  14.817870  4.090090
  16410.526  16410.500  0.500  0.327229  20.542686  14.809607  4.093369
  16415.105  16415.080  0.500  0.326497  20.526989  14.809126  4.095720
  16419.699  16419.690  0.500  0.325805  20.489632  14.792403  4.095502
  16424.354  16424.310  0.500  0.325089  20.474200  14.791856  4.098325
  16429.013  16428.960  0.500  0.324345  20.452738  14.787346  4.100616
  16433.650  16433.620  0.500  0.323826  20.422407  14.773083  4.100608
  16438.325  16438.300  0.500  0.323058  20.390133  14.761070  4.101511
  16443.038  16443.000  0.500  0.322410  20.325724  14.723981  4.094611
  16447.754  16447.720  0.500  0.321864  20.349285  14.749103  4.106179
  16452.497  16452.460  0.500  0.321099  20.328251  14.745119  4.107963
  16457.254  16457.210  0.500  0.320392  20.287648  14.726078  4.106604
  16462.038  16461.990  0.500  0.319573  20.264325  14.721206  4.108814
  16466.800  16466.790  0.500  0.318920  20.246164  14.717618  4.111456
  16471.613  16471.600  0.500  0.318258  20.226052  14.712733  4.114450
  16476.465  16476.430  0.500  0.317604  20.201997  14.704854  4.115590
  16481.331  16481.290  0.500  0.316831  20.154644  14.681729  4.112205
  16486.141  16486.160  0.500  0.316010  20.146486  14.687834  4.118308
  16491.061  16491.050  0.500  0.315230  20.110640  14.673153  4.118471
  16495.996  16495.960  0.500  0.314566  20.082248  14.662159  4.119338
  16500.921  16500.890  0.500  0.313914  20.059297  14.654955  4.121244
  16505.814  16505.830  0.500  0.313099  20.029843  14.645372  4.121619
  16510.817  16510.800  0.500  0.312490  19.995762  14.629364  4.121711
  16515.848  16515.790  0.500  0.311847  19.974822  14.623439  4.124509
  16520.821  16520.790  0.500  0.311033  19.950897  14.617813  4.126257
  16525.822  16525.820  0.500  0.310447  19.922665  14.605694  4.126840
  16530.897  16530.860  0.500  0.309779  19.897278  14.596828  4.128310
  16535.940  16535.920  0.500  0.308840  19.869001  14.589770  4.129690
  16541.009  16541.000  0.500  0.308253  19.848669  14.583395  4.132441
  16546.106  16546.100  0.500  0.307425  19.787508  14.550503  4.126255
  16551.254  16551.220  0.500  0.306587  19.788037  14.563092  4.132871
  16556.393  16556.360  0.500  0.306117  19.760806  14.549886  4.135253
  16561.536  16561.520  0.500  0.305170  19.719804  14.533459  4.134048
  16566.778  16566.700  0.500  0.304355  19.701764  14.532004  4.136541
  16571.938  16571.890  0.500  0.303644  19.673724  14.521635  4.137490
  16577.175  16577.110  0.500  0.303087  19.651292  14.513158  4.139552
  16582.391  16582.340  0.500  0.302342  19.605493  14.490137  4.137405
  16587.585  16587.590  0.500  0.301513  19.587093  14.488539  4.141318
  16592.904  16592.860  0.500  0.300742  19.548249  14.470953  4.139141
  16598.154  16598.150  0.500  0.299816  19.533112  14.473142  4.143487
  16603.492  16603.460  0.500  0.299394  19.508782  14.461221  4.144581
  16608.845  16608.790  0.500  0.298509  19.477801  14.451041  4.145087
  16614.202  16614.140  0.500  0.297936  19.444863  14.434871  4.146200
  16619.562  16619.510  0.500  0.297055  19.414004  14.424673  4.146571
  16624.962  16624.890  0.500  0.296238  19.386377  14.415915  4.148219
  16630.365  16630.300  0.500  0.295541  19.357183  14.404237  4.149342
  16635.760  16635.720  0.500  0.294770  19.321803  14.388999  4.148645
  16641.219  16641.170  0.500  0.293899  19.291343  14.378843  4.148322
  16646.670  16646.630  0.500  0.293098  19.251005  14.360268  4.148491
  16652.149  16652.110  0.500  0.292416  19.221471  14.348023  4.148150
  16657.631  16657.610  0.500  0.291491  19.203718  14.348031  4.152573
  16663.190  16663.130  0.500  0.290618  19.172952  14.337553  4.152540
  16668.716  16668.670  0.500  0.290164  19.140826  14.320030  4.153745
  16674.270  16674.220  0.500  0.289140  19.108954  14.310831  4.153256
  16679.864  16679.800  0.500  0.288623  19.072083  14.290615  4.152919
  16685.462  16685.400  0.500  0.287679  19.027797  14.270887  4.151835
  16691.052  16691.010  0.500  0.286919  18.990336  14.253626  4.150179
  16696.670  16696.650  0.500  0.286056  18.926182  14.217742  4.144529
  16702.353  16702.300  0.500  0.285280  18.852971  14.173740  4.135660
  16708.003  16707.970  0.500  0.284542  18.749879  14.106637  4.120055
  16713.657  16713.660  0.500  0.283672  18.092945  13.624230  3.980467
