# XDI/1.0 BlueSky/1.10.0 BMM/2023-1.0-py310-tiled
# Beamline.name: BMM (06BM) -- Beamline for Materials Measurement (NIST)
# Beamline.xray_source: NSLS-II three-pole wiggler
# Beamline.collimation: paraboloid mirror, 5 nm Rh on 30 nm Pt
# Beamline.focusing: not in use
# Beamline.harmonic_rejection: flat mirror, Pt stripe, pitch = 7.0 mrad relative to beam
# Beamline.software: Bluesky 1.10.0, Ophyd 1.7.0, DataBroker 2.0.0b13, Python 3.10.8, 2023-1.0-py310-tiled
# Detector.I0: 10 cm N2
# Detector.I1: 25 cm N2
# Detector.I2: 25 cm N2
# Element.symbol: Pb
# Element.edge: L3
# Element.reference: Pb
# Element.reference_material: Pb foil
# Facility.name: NSLS-II
# Facility.energy: 3.0
# Facility.current: 399.7
# Facility.mode: top-off
# Facility.GUP: 301027
# Facility.SAF: 310583
# Facility.cycle: 2023-2
# Mono.name: Si(111)
# Mono.d_spacing: 3.1351860
# Mono.encoder_resolution: 0.0000050 deg/ct
# Mono.angle_offset: 16.0754326 deg
# Mono.scan_mode: pseudo channel cut
# Mono.scan_type: step
# Mono.direction: forward in energy
# Sample.name: PbCO3
# Sample.prep: powder on tape
# Sample.x: 143.785 mm
# Sample.y: 114.695 mm
# Sample.SDD_position: 205.000 mm
# Scan.experimenters: Bruce Ravel
# Scan.edge_energy: 13035.2
# Scan.start_time: 2023-06-23T17:15:48
# Scan.end_time: 2023-06-23T17:23:38
# Scan.transient_id: 84892
# Scan.uid: aaba488b-4abf-4de7-b656-7c3376169d93
# Scan.plot_hint: ln(I0/It)  --  ln($5/$6)
# Column.1: energy eV
# Column.2: requested_energy eV
# Column.3: measurement_time seconds
# Column.4: xmu 
# Column.5: I0 nA
# Column.6: It nA
# Column.7: Ir nA
# ///////////
# BMM standards collection
# -----------
# energy  requested_energy  measurement_time  xmu  I0  It  Ir
  12835.168  12835.200  0.500  -0.080059  49.974320  54.139751  24.209075
  12845.212  12845.200  0.500  -0.081476  49.868349  54.101509  24.230057
  12855.236  12855.200  0.500  -0.082620  49.746070  54.030647  24.242089
  12865.225  12865.200  0.500  -0.083959  49.643844  53.991847  24.263923
  12875.244  12875.200  0.500  -0.085246  49.480732  53.883789  24.258467
  12885.236  12885.200  0.500  -0.086533  49.413979  53.880397  24.298417
  12895.258  12895.200  0.500  -0.087813  49.294717  53.819161  24.309879
  12905.266  12905.200  0.500  -0.089155  49.173119  53.758527  24.318754
  12915.298  12915.200  0.500  -0.090382  48.564647  53.158499  24.082487
  12925.207  12925.200  0.500  -0.091621  48.921201  53.615172  24.334333
  12935.241  12935.200  0.500  -0.092755  48.828902  53.574748  24.346667
  12945.254  12945.200  0.500  -0.094052  48.682588  53.483495  24.339466
  12955.261  12955.200  0.500  -0.095182  48.362283  53.191676  24.237804
  12965.268  12965.200  0.500  -0.096143  48.500104  53.394563  24.358262
  12975.255  12975.200  0.500  -0.097138  48.347111  53.279107  24.320528
  12985.250  12985.200  0.500  -0.097969  48.266098  53.234073  24.314596
  12995.253  12995.200  0.500  -0.098577  48.142678  53.130236  24.257882
  13005.265  13005.200  0.500  -0.098634  48.044868  53.025303  24.172999
  13007.205  13007.200  0.500  -0.098612  48.019735  52.996392  24.141965
  13009.206  13009.200  0.500  -0.098426  47.998660  52.963272  24.109107
  13011.199  13011.200  0.500  -0.098229  47.971740  52.923160  24.067379
  13013.171  13013.200  0.500  -0.098042  47.948352  52.887459  24.023786
  13015.188  13015.200  0.500  -0.097680  47.922756  52.840097  23.967605
  13017.199  13017.200  0.500  -0.097202  47.901885  52.791877  23.902185
  13019.224  13019.200  0.500  -0.096762  47.871523  52.735157  23.823516
  13021.191  13021.200  0.500  -0.096114  47.848692  52.675876  23.734265
  13023.181  13023.200  0.500  -0.095269  47.826354  52.606835  23.616897
  13025.194  13025.200  0.500  -0.094034  47.804253  52.517593  23.458841
  13025.468  13025.500  0.500  -0.093851  47.799357  52.502633  23.434138
  13025.764  13025.800  0.500  -0.093720  47.795662  52.491666  23.406849
  13026.052  13026.100  0.500  -0.093504  47.789563  52.473632  23.377967
  13026.378  13026.400  0.500  -0.093202  47.788485  52.456627  23.344863
  13026.652  13026.700  0.500  -0.092946  47.782953  52.437123  23.312891
  13026.970  13027.000  0.500  -0.092664  47.780251  52.419366  23.279928
  13027.266  13027.300  0.500  -0.092598  47.767899  52.402368  23.243872
  13027.563  13027.600  0.500  -0.092168  47.767444  52.379349  23.207439
  13027.866  13027.900  0.500  -0.091985  47.902763  52.518113  23.234477
  13028.162  13028.200  0.500  -0.091632  47.900132  52.496717  23.197695
  13028.466  13028.500  0.500  -0.091319  47.896519  52.476303  23.154959
  13028.755  13028.800  0.500  -0.091071  47.890361  52.456533  23.107400
  13029.058  13029.100  0.500  -0.090761  47.885888  52.435399  23.059804
  13029.369  13029.400  0.500  -0.090333  47.884330  52.411276  23.009450
  13029.658  13029.700  0.500  -0.089878  47.880324  52.383030  22.955120
  13029.969  13030.000  0.500  -0.089494  47.877078  52.359379  22.896152
  13030.243  13030.300  0.500  -0.089245  47.867881  52.336265  22.836227
  13030.569  13030.600  0.500  -0.088735  47.864895  52.306344  22.767621
  13030.865  13030.900  0.500  -0.088213  47.860998  52.274757  22.696018
  13031.177  13031.200  0.500  -0.087783  47.856779  52.247708  22.616594
  13031.480  13031.500  0.500  -0.087191  47.852890  52.212525  22.530787
  13031.769  13031.800  0.500  -0.086615  47.846657  52.175671  22.445548
  13032.088  13032.100  0.500  -0.086047  47.841812  52.140758  22.342257
  13032.384  13032.400  0.500  -0.085278  47.842073  52.100986  22.239178
  13032.703  13032.700  0.500  -0.084677  47.830555  52.057107  22.122502
  13032.992  13033.000  0.500  -0.083844  47.829272  52.012392  22.003528
  13033.318  13033.300  0.500  -0.083163  47.823962  51.971216  21.869158
  13033.592  13033.600  0.500  -0.082377  47.821592  51.927798  21.735486
  13033.903  13033.900  0.500  -0.081475  47.817063  51.876081  21.584361
  13034.177  13034.200  0.500  -0.080639  47.811930  51.827147  21.430005
  13034.503  13034.500  0.500  -0.079510  47.811904  51.768634  21.254953
  13034.778  13034.800  0.500  -0.078651  47.805830  51.717612  21.090397
  13035.096  13035.100  0.500  -0.077385  47.801969  51.648043  20.899529
  13035.385  13035.400  0.500  -0.076279  47.798240  51.586903  20.722121
  13035.689  13035.700  0.500  -0.074910  47.796600  51.514583  20.519036
  13035.971  13036.000  0.500  -0.073686  47.789468  51.443871  20.325812
  13036.290  13036.300  0.500  -0.072311  47.780973  51.364061  20.108987
  13036.572  13036.600  0.500  -0.070883  47.779404  51.289072  19.907823
  13036.876  13036.900  0.500  -0.068952  47.779392  51.190134  19.681737
  13037.180  13037.200  0.500  -0.067212  47.774883  51.096311  19.461450
  13037.476  13037.500  0.500  -0.065355  47.769667  50.995943  19.243624
  13037.802  13037.800  0.500  -0.063038  47.765347  50.873326  18.997469
  13038.084  13038.100  0.500  -0.060963  47.763328  50.765735  18.786433
  13038.418  13038.400  0.500  -0.058400  47.756352  50.628354  18.533716
  13038.692  13038.700  0.500  -0.055990  47.750913  50.500751  18.308143
  13039.004  13039.000  0.500  -0.053164  47.745650  50.352661  18.056505
  13039.301  13039.300  0.500  -0.050281  47.742732  50.204684  17.819402
  13039.590  13039.600  0.500  -0.047399  47.735043  50.052107  17.575922
  13039.909  13039.900  0.500  -0.043727  47.734087  49.867677  17.295029
  13040.198  13040.200  0.500  -0.040252  47.733308  49.693880  17.033743
  13040.517  13040.500  0.500  -0.036325  47.729331  49.494998  16.743308
  13040.799  13040.800  0.500  -0.032469  47.720658  49.295516  16.465950
  13041.096  13041.100  0.500  -0.028069  47.717626  49.075977  16.165293
  13041.385  13041.400  0.500  -0.023701  47.713136  48.857479  15.876767
  13041.682  13041.700  0.500  -0.018852  47.710551  48.618498  15.575531
  13041.993  13042.000  0.500  -0.013451  47.703340  48.349330  15.252911
  13042.283  13042.300  0.500  -0.007958  47.702734  48.083888  14.948704
  13042.595  13042.600  0.500  -0.001711  47.694333  47.776005  14.617607
  13042.877  13042.900  0.500  0.004472  47.694537  47.481718  14.315817
  13043.203  13043.200  0.500  0.011927  47.688845  47.123444  13.979847
  13043.485  13043.500  0.500  0.019139  47.684898  46.780927  13.678501
  13043.797  13043.800  0.500  0.027152  47.675440  46.398368  13.356605
  13044.101  13044.100  0.500  0.035573  47.674583  46.008470  13.055059
  13044.398  13044.400  0.500  0.044199  47.671020  45.609906  12.759266
  13044.717  13044.700  0.500  0.053271  47.666575  45.193776  12.465951
  13044.999  13045.000  0.500  0.061738  47.658762  44.805375  12.208508
  13045.319  13045.300  0.500  0.071708  47.657600  44.359827  11.921945
  13045.601  13045.600  0.500  0.080266  47.649024  43.973914  11.685700
  13045.905  13045.900  0.500  0.089363  47.648064  43.574793  11.442204
  13046.202  13046.200  0.500  0.098161  47.640797  43.186520  11.211121
  13046.506  13046.500  0.500  0.106536  47.638617  42.824399  11.004690
  13046.804  13046.800  0.500  0.114388  47.629610  42.481413  10.812810
  13047.093  13047.100  0.500  0.122097  47.625747  42.151766  10.633373
  13047.398  13047.400  0.500  0.129955  47.613250  41.810873  10.453344
  13047.687  13047.700  0.500  0.136838  47.595556  41.508648  10.299953
  13047.984  13048.000  0.500  0.143851  47.577418  41.202860  10.150875
  13048.274  13048.300  0.500  0.150109  47.557098  40.928330  10.022886
  13048.578  13048.600  0.500  0.156606  47.540017  40.648640  9.899073
  13048.890  13048.900  0.500  0.162737  47.526253  40.388526  9.792133
  13049.188  13049.200  0.500  0.168083  47.517686  40.165921  9.704861
  13049.507  13049.500  0.500  0.173743  47.515185  39.937142  9.618685
  13049.789  13049.800  0.500  0.178458  47.517185  39.750936  9.553538
  13050.124  13050.100  0.500  0.183817  47.529870  39.549018  9.488488
  13050.391  13050.400  0.500  0.187910  47.533474  39.390489  9.442276
  13050.711  13050.700  0.500  0.192493  47.546661  39.221256  9.395369
  13051.008  13051.000  0.500  0.196453  47.556063  39.073955  9.359985
  13051.320  13051.300  0.500  0.200457  47.555927  38.917721  9.322744
  13051.602  13051.600  0.500  0.203982  47.559706  38.783862  9.293313
  13051.914  13051.900  0.500  0.207648  47.556609  38.639392  9.264474
  13052.204  13052.200  0.500  0.210784  47.557663  38.519277  9.241043
  13052.502  13052.500  0.500  0.213767  47.550739  38.398975  9.218352
  13052.814  13052.800  0.500  0.216612  47.554010  38.292504  9.198021
  13053.111  13053.100  0.500  0.218873  47.545241  38.198991  9.181568
  13053.401  13053.400  0.500  0.220834  47.541088  38.120794  9.166651
  13053.691  13053.700  0.500  0.222464  47.539432  38.057418  9.154132
  13054.003  13054.000  0.500  0.223682  47.534794  38.007379  9.144004
  13054.286  13054.300  0.500  0.224404  47.531531  37.977336  9.134848
  13054.583  13054.600  0.500  0.224699  47.525773  37.961534  9.131060
  13054.880  13054.900  0.500  0.224472  47.521240  37.966511  9.127290
  13055.200  13055.200  0.500  0.224008  47.520754  37.983759  9.123816
  13055.497  13055.500  0.500  0.223060  47.512271  38.013010  9.123612
  13055.795  13055.800  0.500  0.221764  47.511616  38.061768  9.124211
  13056.077  13056.100  0.500  0.220228  47.504382  38.114456  9.125264
  13056.412  13056.400  0.500  0.218164  47.499388  38.189201  9.126174
  13056.710  13056.700  0.500  0.216154  47.501815  38.267987  9.126826
  13057.007  13057.000  0.500  0.213754  47.492727  38.352627  9.123875
  13057.297  13057.300  0.500  0.211464  47.489477  38.437921  9.122348
  13057.617  13057.600  0.500  0.208797  47.483045  38.535324  9.116877
  13057.907  13057.900  0.500  0.206338  47.481231  38.628755  9.110918
  13058.212  13058.200  0.500  0.203758  47.475892  38.724184  9.102150
  13058.510  13058.500  0.500  0.201110  47.473774  38.825103  9.090063
  13058.815  13058.800  0.500  0.198483  47.469153  38.923438  9.075853
  13059.112  13059.100  0.500  0.195838  47.465462  39.023496  9.059439
  13059.410  13059.400  0.500  0.193445  47.461650  39.113873  9.040563
  13059.707  13059.700  0.500  0.191016  47.457914  39.205903  9.021748
  13059.990  13060.000  0.500  0.188701  47.453324  39.292978  9.001656
  13060.198  13060.200  0.500  0.187019  47.450932  39.357112  8.986497
  13061.181  13061.190  0.500  0.179894  47.432901  39.623508  8.918898
  13062.215  13062.190  0.500  0.173327  47.421786  39.875192  8.873949
  13063.220  13063.210  0.500  0.167725  47.411004  40.090093  8.864561
  13064.278  13064.260  0.500  0.162857  47.395562  40.272596  8.889981
  13065.357  13065.320  0.500  0.159256  47.387315  40.410863  8.939672
  13066.430  13066.400  0.500  0.156810  47.379450  40.503101  8.997011
  13067.510  13067.500  0.500  0.155886  47.365034  40.528197  9.051207
  13068.627  13068.620  0.500  0.156948  47.351974  40.474034  9.091478
  13069.760  13069.760  0.500  0.159831  47.333407  40.341693  9.106304
  13070.938  13070.910  0.500  0.164378  47.289778  40.121647  9.078906
  13072.100  13072.090  0.500  0.169796  47.234745  39.858428  9.025208
  13073.316  13073.280  0.500  0.175394  47.240101  39.640428  8.972579
  13074.501  13074.500  0.500  0.180645  47.270082  39.457817  8.925589
  13075.739  13075.730  0.500  0.185074  47.257196  39.272734  8.880064
  13076.970  13076.980  0.500  0.188351  47.230846  39.122457  8.846664
  13078.261  13078.250  0.500  0.190550  47.221514  39.028801  8.821769
  13079.567  13079.540  0.500  0.191569  47.216038  38.984507  8.802974
  13080.881  13080.850  0.500  0.192160  47.202303  38.950155  8.773173
  13082.195  13082.180  0.500  0.192941  47.189279  38.909006  8.731975
  13083.546  13083.530  0.500  0.194468  47.177744  38.840159  8.677383
  13084.913  13084.900  0.500  0.196464  47.158934  38.747223  8.613558
  13086.303  13086.280  0.500  0.198667  47.144436  38.650079  8.549741
  13087.715  13087.690  0.500  0.200696  47.124841  38.555727  8.501999
  13089.112  13089.110  0.500  0.201871  47.107608  38.496355  8.478007
  13090.555  13090.550  0.500  0.201935  47.087630  38.477553  8.476973
  13092.028  13092.010  0.500  0.200715  47.050473  38.494136  8.499387
  13093.509  13093.490  0.500  0.198332  46.984549  38.531928  8.537288
  13095.020  13094.990  0.500  0.195001  46.998755  38.672178  8.597962
  13096.524  13096.510  0.500  0.191550  47.015438  38.819633  8.657855
  13098.058  13098.050  0.500  0.187900  47.001318  38.949885  8.708781
  13099.608  13099.610  0.500  0.184501  46.981109  39.065704  8.755426
  13101.195  13101.180  0.500  0.181675  46.960659  39.159191  8.794423
  13102.798  13102.780  0.500  0.179720  46.929728  39.209997  8.822603
  13104.416  13104.390  0.500  0.178443  46.915065  39.247816  8.844182
  13106.034  13106.030  0.500  0.177806  46.853877  39.221590  8.844566
  13107.683  13107.680  0.500  0.177398  46.868751  39.250067  8.852806
  13109.362  13109.350  0.500  0.177492  46.872246  39.249321  8.847021
  13111.065  13111.040  0.500  0.177588  46.852340  39.228885  8.828647
  13112.767  13112.750  0.500  0.178119  46.831424  39.190556  8.803948
  13114.486  13114.480  0.500  0.178819  46.809150  39.144493  8.775173
  13116.234  13116.230  0.500  0.179666  46.772816  39.080998  8.744051
  13118.013  13117.990  0.500  0.180412  46.693196  38.985373  8.709784
  13119.793  13119.780  0.500  0.180961  46.732051  38.996408  8.706131
  13121.588  13121.580  0.500  0.181437  46.723021  38.970288  8.702129
  13123.406  13123.410  0.500  0.181797  46.704874  38.941167  8.705103
  13125.263  13125.250  0.500  0.181754  46.675325  38.918203  8.713628
  13127.142  13127.110  0.500  0.181877  46.655121  38.896555  8.727816
  13128.984  13128.990  0.500  0.181809  46.643299  38.889345  8.743086
  13130.857  13130.890  0.500  0.181862  46.614060  38.862889  8.754107
  13132.821  13132.810  0.500  0.182061  46.564729  38.814061  8.755099
  13134.763  13134.750  0.500  0.182360  46.565833  38.803386  8.761431
  13136.720  13136.710  0.500  0.182690  46.550427  38.777735  8.759241
  13138.693  13138.680  0.500  0.182859  46.522011  38.747529  8.758843
  13140.697  13140.680  0.500  0.182929  46.501523  38.727745  8.758078
  13142.686  13142.690  0.500  0.182761  46.479976  38.716311  8.757342
  13144.736  13144.720  0.500  0.182056  46.454360  38.722239  8.761985
  13146.750  13146.780  0.500  0.181156  46.429159  38.736084  8.766990
  13148.854  13148.850  0.500  0.180063  46.407795  38.760594  8.774843
  13150.944  13150.940  0.500  0.179069  46.381353  38.777053  8.782128
  13153.027  13153.050  0.500  0.177802  46.342015  38.793295  8.786490
  13155.171  13155.180  0.500  0.176981  46.334295  38.818687  8.794832
  13157.301  13157.320  0.500  0.176141  46.306186  38.827736  8.798294
  13159.477  13159.490  0.500  0.175582  46.281034  38.828339  8.801658
  13161.646  13161.680  0.500  0.175140  46.255037  38.823692  8.804336
  13163.838  13163.880  0.500  0.174804  46.229933  38.815631  8.806656
  13166.076  13166.100  0.500  0.174461  46.198995  38.802998  8.809316
  13168.429  13168.350  0.500  0.173984  46.284035  38.892941  8.836290
  13170.548  13170.610  0.500  0.173664  46.289717  38.910196  8.844162
  13172.948  13172.890  0.500  0.173141  46.266039  38.910616  8.850433
  13175.394  13175.190  0.500  0.172843  46.244463  38.904066  8.853101
  13177.523  13177.510  0.500  0.172490  46.208884  38.887869  8.851906
  13179.910  13179.850  0.500  0.172229  46.184183  38.877215  8.855999
  13182.230  13182.200  0.500  0.171946  46.154918  38.863588  8.856968
  13184.619  13184.580  0.500  0.171701  46.127705  38.850189  8.858047
  13187.016  13186.970  0.500  0.171521  46.098178  38.832292  8.858721
  13189.429  13189.390  0.500  0.171567  46.074136  38.810254  8.859599
  13191.844  13191.820  0.500  0.171389  46.045108  38.792704  8.861162
  13194.297  13194.270  0.500  0.171173  46.016987  38.777407  8.866376
  13196.782  13196.750  0.500  0.170907  45.983759  38.759721  8.867792
  13199.282  13199.240  0.500  0.170846  45.953309  38.736394  8.872475
  13201.791  13201.750  0.500  0.170605  45.924957  38.721818  8.874699
  13204.302  13204.270  0.500  0.170586  45.896440  38.698511  8.876379
  13206.851  13206.820  0.500  0.170331  45.867182  38.683728  8.879090
  13209.401  13209.390  0.500  0.169992  45.833494  38.668414  8.881180
  13211.990  13211.970  0.500  0.169543  45.801191  38.658522  8.883346
  13214.604  13214.580  0.500  0.169046  45.769379  38.650864  8.886875
  13217.233  13217.200  0.500  0.168363  45.737404  38.650271  8.888371
  13219.887  13219.850  0.500  0.167649  45.702992  38.648768  8.891437
  13222.541  13222.510  0.500  0.167026  45.671362  38.646069  8.894459
  13225.204  13225.190  0.500  0.166382  45.617930  38.625740  8.892230
  13227.914  13227.890  0.500  0.165851  45.588707  38.621505  8.894233
  13230.649  13230.610  0.500  0.165361  45.571830  38.626135  8.897769
  13233.384  13233.350  0.500  0.164913  45.539528  38.616055  8.898302
  13236.128  13236.100  0.500  0.164519  45.501838  38.599291  8.896587
  13238.889  13238.880  0.500  0.164202  45.470841  38.585210  8.896604
  13241.666  13241.670  0.500  0.164027  45.433622  38.560365  8.895724
  13244.497  13244.490  0.500  0.163695  45.392378  38.538180  8.897071
  13247.323  13247.320  0.500  0.163440  45.352250  38.513913  8.896667
  13250.180  13250.170  0.500  0.163156  45.317186  38.495072  8.898955
  13253.046  13253.050  0.500  0.162845  45.276027  38.472082  8.900153
  13255.936  13255.940  0.500  0.162472  45.236845  38.453110  8.901989
  13258.866  13258.850  0.500  0.162005  45.180833  38.423434  8.902492
  13261.790  13261.770  0.500  0.161539  45.129604  38.397773  8.900930
  13264.746  13264.720  0.500  0.161163  45.072391  38.363514  8.899743
  13267.695  13267.690  0.500  0.160761  44.981144  38.301235  8.890146
  13270.653  13270.670  0.500  0.160414  44.842712  38.196609  8.869630
  13273.674  13273.680  0.500  0.160117  44.539370  37.949501  8.816933
  13276.705  13276.700  0.500  0.159741  44.367971  37.817676  8.790854
  13279.760  13279.750  0.500  0.159523  44.399930  37.853167  8.803643
  13282.808  13282.810  0.500  0.159088  44.356652  37.832722  8.803381
  13285.881  13285.890  0.500  0.158880  44.271067  37.767587  8.792878
  13288.994  13288.990  0.500  0.158456  44.191176  37.715438  8.784570
  13292.116  13292.110  0.500  0.158067  44.148123  37.693329  8.782734
  13295.255  13295.250  0.500  0.157711  44.178362  37.732585  8.798135
  13298.388  13298.400  0.500  0.157133  44.126342  37.709942  8.798863
  13301.569  13301.580  0.500  0.156612  44.054926  37.668526  8.796872
  13304.766  13304.770  0.500  0.156002  44.014477  37.656917  8.799923
  13307.989  13307.990  0.500  0.155393  44.016178  37.681297  8.812637
  13311.213  13311.220  0.500  0.154778  43.996021  37.687225  8.820555
  13314.477  13314.470  0.500  0.154198  43.973175  37.689501  8.829351
  13317.766  13317.750  0.500  0.153666  43.948692  37.688562  8.836188
  13321.065  13321.040  0.500  0.152953  43.897722  37.671714  8.840039
  13324.365  13324.350  0.500  0.152720  43.848685  37.638400  8.840390
  13327.682  13327.670  0.500  0.152223  43.791160  37.607692  8.840909
  13331.048  13331.020  0.500  0.151779  43.740123  37.580548  8.839517
  13334.415  13334.390  0.500  0.151192  43.742619  37.604782  8.853642
  13337.784  13337.770  0.500  0.150791  43.724864  37.604580  8.859841
  13341.209  13341.180  0.500  0.150401  43.702016  37.599575  8.865355
  13344.612  13344.600  0.500  0.149848  43.676407  37.598350  8.870144
  13348.064  13348.050  0.500  0.149373  43.647446  37.591259  8.877061
  13351.510  13351.510  0.500  0.148899  43.619589  37.585087  8.882518
  13355.012  13354.990  0.500  0.148409  43.587644  37.575983  8.889016
  13358.509  13358.490  0.500  0.147997  43.536864  37.547655  8.887497
  13362.023  13362.010  0.500  0.147352  43.517200  37.554898  8.897504
  13365.577  13365.550  0.500  0.146603  43.463422  37.536614  8.901248
  13369.134  13369.100  0.500  0.146259  43.419581  37.511638  8.902596
  13372.692  13372.680  0.500  0.145670  43.376138  37.496202  8.907752
  13376.284  13376.280  0.500  0.145045  43.336337  37.485192  8.911753
  13379.901  13379.890  0.500  0.144481  43.299345  37.474355  8.918268
  13383.543  13383.520  0.500  0.144037  43.266453  37.462522  8.925444
  13387.188  13387.180  0.500  0.143348  43.221975  37.449783  8.929903
  13390.889  13390.850  0.500  0.142962  43.195948  37.441673  8.935106
  13394.576  13394.540  0.500  0.142407  43.153170  37.425390  8.940918
  13398.258  13398.250  0.500  0.141666  43.114259  37.419347  8.945515
  13401.974  13401.980  0.500  0.141228  43.078259  37.404483  8.951503
  13405.754  13405.720  0.500  0.140564  43.027709  37.385410  8.955397
  13409.520  13409.490  0.500  0.139936  43.013913  37.396888  8.965593
  13413.289  13413.280  0.500  0.139366  42.981652  37.390143  8.973877
  13417.083  13417.080  0.500  0.138639  42.940376  37.381398  8.978331
  13420.943  13420.910  0.500  0.138182  42.894884  37.358868  8.982026
  13424.757  13424.750  0.500  0.137411  42.851542  37.349924  8.988414
  13428.613  13428.610  0.500  0.136886  42.749520  37.280568  8.980051
  13432.511  13432.490  0.500  0.136242  42.760620  37.314248  8.995498
  13436.388  13436.390  0.500  0.135727  42.724673  37.302082  9.002804
  13440.329  13440.310  0.500  0.135199  42.681011  37.283673  9.006581
  13444.265  13444.250  0.500  0.134486  42.637965  37.272621  9.011646
  13448.220  13448.210  0.500  0.133819  42.588042  37.253824  9.017963
  13452.184  13452.180  0.500  0.133303  42.551315  37.240909  9.023840
  13456.222  13456.180  0.500  0.132666  42.511115  37.229436  9.030963
  13460.199  13460.190  0.500  0.132051  42.468293  37.214806  9.036684
  13464.242  13464.230  0.500  0.131438  42.422719  37.197678  9.042254
  13468.319  13468.280  0.500  0.130820  42.380223  37.183368  9.047647
  13472.359  13472.350  0.500  0.130175  42.321629  37.155943  9.050786
  13476.449  13476.440  0.500  0.129641  42.292839  37.150468  9.057760
  13480.581  13480.550  0.500  0.128890  42.143297  37.046949  9.041376
  13484.692  13484.680  0.500  0.128307  42.192221  37.111569  9.067481
  13488.829  13488.830  0.500  0.127647  42.200334  37.143216  9.081887
  13493.017  13492.990  0.500  0.127025  42.103054  37.080633  9.076986
  13497.207  13497.180  0.500  0.126298  42.105591  37.109868  9.093277
  13501.384  13501.380  0.500  0.125886  42.065441  37.089733  9.097379
  13505.635  13505.610  0.500  0.125249  42.013592  37.067633  9.102345
  13509.857  13509.850  0.500  0.124441  41.967634  37.057008  9.109474
  13514.137  13514.110  0.500  0.123967  41.907891  37.021817  9.109725
  13518.428  13518.390  0.500  0.123260  41.864734  37.009856  9.114725
  13522.722  13522.690  0.500  0.122581  41.812926  36.989163  9.118945
  13527.051  13527.010  0.500  0.122110  41.754431  36.954804  9.119701
  13531.382  13531.350  0.500  0.121353  41.712801  36.945906  9.126117
  13535.725  13535.710  0.500  0.120722  41.616621  36.883987  9.119183
  13540.126  13540.090  0.500  0.119984  41.109724  36.461635  9.028668
  13544.498  13544.480  0.500  0.119436  41.626841  36.940529  9.154867
  13548.904  13548.900  0.500  0.118741  41.570642  36.916285  9.159229
  13553.362  13553.330  0.500  0.118008  41.504860  36.884906  9.161555
  13557.783  13557.780  0.500  0.117304  40.811416  36.294198  9.024066
  13562.263  13562.250  0.500  0.116603  41.443573  36.882233  9.179172
  13566.778  13566.740  0.500  0.116038  41.157422  36.648280  9.132311
  13571.272  13571.250  0.500  0.115346  41.330910  36.828215  9.187803
  13575.801  13575.780  0.500  0.114725  40.672955  36.264478  9.058076
  13580.349  13580.330  0.500  0.114013  41.270698  36.823647  9.206331
  13584.908  13584.900  0.500  0.113367  41.209564  36.792831  9.208960
  13589.519  13589.480  0.500  0.112640  41.136305  36.754157  9.209386
  13594.101  13594.090  0.500  0.111934  40.655096  36.349852  9.116085
  13598.742  13598.710  0.500  0.111270  41.086546  36.760023  9.232121
  13603.355  13603.360  0.500  0.110602  41.022028  36.726830  9.233873
  13608.067  13608.020  0.500  0.109809  40.980835  36.719053  9.241773
  13612.743  13612.700  0.500  0.109138  40.911301  36.681346  9.244319
  13617.413  13617.400  0.500  0.108401  40.885082  36.684850  9.254249
  13622.160  13622.120  0.500  0.107643  40.817252  36.651784  9.257241
  13626.853  13626.860  0.500  0.107112  40.799356  36.655156  9.268500
  13631.655  13631.610  0.500  0.106239  40.725644  36.620877  9.272518
  13636.412  13636.390  0.500  0.105617  40.693797  36.615026  9.281427
  13641.212  13641.190  0.500  0.104980  40.646393  36.595675  9.285858
  13646.033  13646.000  0.500  0.104233  40.595731  36.577387  9.292906
  13650.848  13650.830  0.500  0.103438  40.500420  36.520538  9.291412
  13655.724  13655.690  0.500  0.102837  40.506499  36.547957  9.308554
  13660.571  13660.560  0.500  0.102097  40.454872  36.528419  9.314168
  13665.495  13665.450  0.500  0.101204  40.402001  36.513254  9.321258
  13670.390  13670.360  0.500  0.100499  40.351107  36.492988  9.329013
  13675.313  13675.290  0.500  0.099747  40.295267  36.469893  9.332094
  13680.280  13680.230  0.500  0.099010  40.236677  36.443709  9.337639
  13685.219  13685.200  0.500  0.098374  40.188246  36.423011  9.346041
  13690.234  13690.190  0.500  0.097657  40.142967  36.408047  9.351520
  13695.221  13695.190  0.500  0.096756  40.088968  36.391853  9.359387
  13700.268  13700.220  0.500  0.096057  40.040072  36.372901  9.366623
  13705.295  13705.260  0.500  0.095258  39.987712  36.354367  9.372696
  13710.350  13710.320  0.500  0.094584  39.941157  36.336515  9.380313
  13715.450  13715.400  0.500  0.093995  39.896002  36.316838  9.387402
  13720.545  13720.500  0.500  0.093180  39.844035  36.299088  9.394532
  13725.661  13725.620  0.500  0.092390  39.792333  36.280647  9.398646
  13730.797  13730.760  0.500  0.091608  39.738829  36.260205  9.405307
  13735.970  13735.920  0.500  0.090860  39.685521  36.238667  9.411959
  13741.139  13741.100  0.500  0.090159  39.619834  36.204051  9.415380
  13746.303  13746.290  0.500  0.089336  39.579514  36.196968  9.424038
  13751.579  13751.510  0.500  0.088595  39.518122  36.167626  9.427410
  13756.768  13756.740  0.500  0.087850  39.471640  36.151993  9.436216
  13762.027  13761.990  0.500  0.087061  39.411478  36.125408  9.442075
  13767.298  13767.260  0.500  0.086223  39.354730  36.103621  9.445310
  13772.590  13772.550  0.500  0.085494  39.303501  36.082915  9.455278
  13777.936  13777.860  0.500  0.084703  39.245986  36.058628  9.459391
  13783.211  13783.190  0.500  0.083926  39.193062  36.038004  9.467367
  13788.632  13788.540  0.500  0.083219  39.140578  36.015179  9.473337
  13793.874  13793.910  0.500  0.082364  39.163912  36.067472  9.498913
  13799.253  13799.290  0.500  0.081624  39.117038  36.050977  9.507671
  13804.686  13804.700  0.500  0.080688  39.059872  36.031994  9.514154
  13810.115  13810.120  0.500  0.079939  39.000972  36.004644  9.520000
  13815.566  13815.570  0.500  0.079226  38.910982  35.947185  9.516236
  13821.020  13821.030  0.500  0.078458  38.893261  35.958403  9.533136
  13826.513  13826.510  0.500  0.077660  38.825875  35.924759  9.535704
  13832.018  13832.010  0.500  0.076885  38.771647  35.902398  9.541982
  13837.544  13837.530  0.500  0.075980  38.714085  35.881575  9.551415
  13843.125  13843.070  0.500  0.075258  38.652801  35.850626  9.553574
  13848.636  13848.620  0.500  0.074490  38.587458  35.817535  9.558547
  13854.268  13854.200  0.500  0.073578  38.500274  35.769223  9.557044
  13859.820  13859.800  0.500  0.072868  38.461667  35.758732  9.569820
  13865.445  13865.410  0.500  0.072000  38.389931  35.723001  9.571470
  13871.091  13871.050  0.500  0.071112  38.304988  35.675637  9.572419
  13876.733  13876.700  0.500  0.070435  38.213948  35.614962  9.568727
  13882.422  13882.370  0.500  0.069539  38.056871  35.500357  9.551137
  13888.090  13888.060  0.500  0.068827  37.914217  35.392476  9.534914
