# XDI/1.0 BlueSky/1.10.0 BMM/2023-1.0-py310-tiled
# Beamline.name: BMM (06BM) -- Beamline for Materials Measurement (NIST)
# Beamline.xray_source: NSLS-II three-pole wiggler
# Beamline.collimation: paraboloid mirror, 5 nm Rh on 30 nm Pt
# Beamline.focusing: not in use
# Beamline.harmonic_rejection: flat mirror, Pt stripe, pitch = 7.0 mrad relative to beam
# Beamline.software: Bluesky 1.10.0, Ophyd 1.7.0, DataBroker 2.0.0b13, Python 3.10.8, 2023-1.0-py310-tiled
# Detector.I0: 10 cm N2
# Detector.I1: 25 cm N2
# Detector.I2: 25 cm N2
# Element.symbol: Pb
# Element.edge: L1
# Element.reference: Pb
# Element.reference_material: Pb foil
# Facility.name: NSLS-II
# Facility.energy: 3.0
# Facility.current: 399.9
# Facility.mode: top-off
# Facility.GUP: 301027
# Facility.SAF: 310583
# Facility.cycle: 2023-2
# Mono.name: Si(111)
# Mono.d_spacing: 3.1351860
# Mono.encoder_resolution: 0.0000050 deg/ct
# Mono.angle_offset: 16.0754326 deg
# Mono.scan_mode: pseudo channel cut
# Mono.scan_type: step
# Mono.direction: forward in energy
# Sample.name: PbSO4
# Sample.prep: powder on tape
# Sample.x: 143.785 mm
# Sample.y: 114.695 mm
# Sample.SDD_position: 205.000 mm
# Scan.experimenters: Bruce Ravel
# Scan.edge_energy: 15860.8
# Scan.start_time: 2023-06-23T18:21:37
# Scan.end_time: 2023-06-23T18:29:49
# Scan.transient_id: 84931
# Scan.uid: e91c4bc7-d325-42c7-80f0-5a92df860830
# Scan.plot_hint: ln(I0/It)  --  ln($5/$6)
# Column.1: energy eV
# Column.2: requested_energy eV
# Column.3: measurement_time seconds
# Column.4: xmu 
# Column.5: I0 nA
# Column.6: It nA
# Column.7: Ir nA
# ///////////
# BMM standards collection
# -----------
# energy  requested_energy  measurement_time  xmu  I0  It  Ir
  15660.763  15660.800  0.500  -0.003238  24.761312  24.841617  6.957018
  15670.830  15670.800  0.500  -0.004294  24.615617  24.721543  6.936077
  15680.890  15680.800  0.500  -0.005330  24.616080  24.747628  6.956201
  15690.908  15690.800  0.500  -0.006431  24.581985  24.740594  6.966492
  15700.853  15700.800  0.500  -0.007428  24.517433  24.700220  6.967508
  15710.832  15710.800  0.500  -0.008383  24.446492  24.652283  6.965982
  15720.911  15720.800  0.500  -0.009487  24.393400  24.625933  6.970099
  15730.905  15730.800  0.500  -0.010370  24.334411  24.588082  6.969488
  15740.825  15740.800  0.500  -0.011229  24.282522  24.556729  6.973734
  15750.867  15750.800  0.500  -0.012121  24.214196  24.509484  6.968888
  15760.921  15760.800  0.500  -0.013106  24.152393  24.471015  6.970597
  15770.738  15770.800  0.500  -0.014029  24.098992  24.439454  6.970455
  15780.785  15780.800  0.500  -0.014867  24.041817  24.401910  6.967845
  15790.791  15790.800  0.500  -0.015401  23.984461  24.356698  6.962171
  15800.798  15800.800  0.500  -0.016041  23.926107  24.312994  6.955492
  15810.775  15810.800  0.500  -0.016418  23.861892  24.256884  6.944298
  15820.808  15820.800  0.500  -0.016425  23.810696  24.205020  6.923190
  15830.810  15830.800  0.500  -0.015800  23.745338  24.123492  6.891207
  15832.741  15832.800  0.500  -0.015568  23.731551  24.103889  6.879161
  15834.739  15834.800  0.500  -0.015229  23.722320  24.086357  6.868395
  15836.760  15836.800  0.500  -0.014758  23.712781  24.065320  6.856536
  15838.748  15838.800  0.500  -0.014159  23.702217  24.040209  6.839392
  15840.780  15840.800  0.500  -0.013223  23.691259  24.006603  6.818861
  15842.759  15842.800  0.500  -0.012358  23.673126  23.967501  6.795093
  15844.737  15844.800  0.500  -0.011145  23.658378  23.923521  6.765030
  15846.760  15846.800  0.500  -0.009503  23.642758  23.868506  6.725448
  15848.762  15848.800  0.500  -0.007167  23.637502  23.807531  6.677330
  15850.775  15850.800  0.500  -0.004119  23.609876  23.707323  6.605245
  15851.050  15851.100  0.500  -0.003447  23.609884  23.691417  6.594364
  15851.325  15851.400  0.500  -0.003019  23.604445  23.675825  6.582592
  15851.622  15851.700  0.500  -0.002423  23.604693  23.661960  6.570383
  15851.952  15852.000  0.500  -0.001682  23.606099  23.645833  6.556016
  15852.249  15852.300  0.500  -0.000961  23.605040  23.627746  6.543010
  15852.535  15852.600  0.500  -0.000269  23.602048  23.608409  6.529552
  15852.854  15852.900  0.500  0.000625  23.602976  23.588219  6.513327
  15853.163  15853.200  0.500  0.001328  23.592725  23.561424  6.494731
  15853.449  15853.500  0.500  0.002215  23.601426  23.549196  6.481226
  15853.746  15853.800  0.500  0.002937  23.601998  23.532778  6.464532
  15854.065  15854.100  0.500  0.003933  23.594613  23.502002  6.442415
  15854.362  15854.400  0.500  0.005113  23.606157  23.485768  6.426328
  15854.637  15854.700  0.500  0.005978  23.599462  23.458809  6.407602
  15854.946  15855.000  0.500  0.007022  23.599095  23.433969  6.385875
  15855.265  15855.300  0.500  0.008134  23.596663  23.405513  6.361430
  15855.540  15855.600  0.500  0.009510  23.597423  23.374078  6.341124
  15855.848  15855.900  0.500  0.010785  23.600231  23.347071  6.315678
  15856.157  15856.200  0.500  0.012473  23.597380  23.304869  6.285629
  15856.465  15856.500  0.500  0.013852  23.594514  23.269928  6.256626
  15856.751  15856.800  0.500  0.015491  23.592376  23.229724  6.229703
  15857.048  15857.100  0.500  0.017055  23.591606  23.192657  6.198651
  15857.346  15857.400  0.500  0.018810  23.586178  23.146671  6.162654
  15857.643  15857.700  0.500  0.020675  23.578168  23.095697  6.130286
  15857.940  15858.000  0.500  0.022730  23.579014  23.049114  6.093748
  15858.282  15858.300  0.500  0.025063  23.575442  22.991915  6.051131
  15858.568  15858.600  0.500  0.026969  23.570855  22.943657  6.014451
  15858.854  15858.900  0.500  0.029344  23.570768  22.889162  5.978197
  15859.163  15859.200  0.500  0.031944  23.572148  22.831058  5.933771
  15859.482  15859.500  0.500  0.034275  23.561967  22.768054  5.892664
  15859.758  15859.800  0.500  0.036815  23.562291  22.710618  5.852162
  15860.099  15860.100  0.500  0.039908  23.568001  22.645973  5.806186
  15860.396  15860.400  0.500  0.042557  23.563790  22.582022  5.765482
  15860.683  15860.700  0.500  0.045160  23.562441  22.522039  5.723774
  15860.991  15861.000  0.500  0.047796  23.558126  22.458625  5.680925
  15861.278  15861.300  0.500  0.050375  23.556332  22.399067  5.643493
  15861.586  15861.600  0.500  0.052994  23.552832  22.337180  5.603602
  15861.906  15861.900  0.500  0.055605  23.552110  22.278235  5.564491
  15862.192  15862.200  0.500  0.057720  23.550891  22.230030  5.534858
  15862.490  15862.500  0.500  0.059890  23.543056  22.174453  5.502873
  15862.787  15862.800  0.500  0.062152  23.548644  22.129612  5.473724
  15863.096  15863.100  0.500  0.063806  23.631914  22.171150  5.467833
  15863.393  15863.400  0.500  0.065349  23.627882  22.133188  5.445704
  15863.713  15863.700  0.500  0.066724  23.625760  22.100799  5.425204
  15864.021  15864.000  0.500  0.067987  23.623170  22.070472  5.409342
  15864.308  15864.300  0.500  0.068666  23.623332  22.055662  5.396579
  15864.605  15864.600  0.500  0.069247  23.618753  22.038578  5.386014
  15864.881  15864.900  0.500  0.069456  23.622254  22.037238  5.380770
  15865.179  15865.200  0.500  0.069426  23.617209  22.033191  5.378552
  15865.498  15865.500  0.500  0.069022  23.612288  22.037505  5.377767
  15865.785  15865.800  0.500  0.068568  23.617245  22.052136  5.381421
  15866.082  15866.100  0.500  0.067699  23.614214  22.068462  5.386309
  15866.369  15866.400  0.500  0.066600  23.610272  22.089043  5.394022
  15866.656  15866.700  0.500  0.065317  23.603937  22.111481  5.402197
  15866.975  15867.000  0.500  0.063894  23.607110  22.145943  5.417110
  15867.273  15867.300  0.500  0.062180  23.604030  22.181022  5.429075
  15867.571  15867.600  0.500  0.060737  23.602158  22.211289  5.442278
  15867.890  15867.900  0.500  0.058762  23.600536  22.253688  5.458598
  15868.188  15868.200  0.500  0.057072  23.594642  22.285757  5.472818
  15868.497  15868.500  0.500  0.055337  23.599272  22.328833  5.490495
  15868.795  15868.800  0.500  0.053114  23.594184  22.373711  5.508264
  15869.081  15869.100  0.500  0.051225  23.591462  22.413415  5.522569
  15869.401  15869.400  0.500  0.049429  23.581911  22.444627  5.538260
  15869.699  15869.700  0.500  0.047765  23.585074  22.485003  5.554348
  15869.986  15870.000  0.500  0.046022  23.581264  22.520602  5.569164
  15870.317  15870.300  0.500  0.044472  23.581333  22.555605  5.585021
  15870.625  15870.600  0.500  0.043092  23.582022  22.587398  5.596541
  15870.912  15870.900  0.500  0.041822  23.576568  22.610887  5.607421
  15871.210  15871.200  0.500  0.040367  23.576700  22.643942  5.619470
  15871.508  15871.500  0.500  0.039161  23.570627  22.665409  5.627980
  15871.795  15871.800  0.500  0.038158  23.569481  22.687052  5.637574
  15872.115  15872.100  0.500  0.037082  23.565308  22.707466  5.647138
  15872.412  15872.400  0.500  0.036026  23.565706  22.731841  5.653541
  15872.699  15872.700  0.500  0.035575  23.560250  22.736825  5.658647
  15873.008  15873.000  0.500  0.034713  23.561324  22.757480  5.664965
  15873.306  15873.300  0.500  0.034149  23.554993  22.764199  5.668239
  15873.582  15873.600  0.500  0.033702  23.551052  22.770551  5.670415
  15873.913  15873.900  0.500  0.033130  23.554196  22.786630  5.674472
  15874.211  15874.200  0.500  0.032672  23.544797  22.787965  5.675008
  15874.487  15874.500  0.500  0.032366  23.544634  22.794786  5.677709
  15874.785  15874.800  0.500  0.032239  23.544596  22.797643  5.678572
  15875.094  15875.100  0.500  0.031817  23.543068  22.805778  5.678833
  15875.381  15875.400  0.500  0.031677  23.537497  22.803578  5.677372
  15875.701  15875.700  0.500  0.031429  23.538692  22.810405  5.677476
  15875.988  15876.000  0.500  0.031329  23.536574  22.810629  5.676958
  15876.264  15876.300  0.500  0.031272  23.534463  22.809888  5.674837
  15876.573  15876.600  0.500  0.031214  23.534849  22.811586  5.674033
  15876.893  15876.900  0.500  0.031182  23.532243  22.809781  5.673300
  15877.158  15877.200  0.500  0.031122  23.523876  22.803041  5.669489
  15877.489  15877.500  0.500  0.031424  23.530485  22.802564  5.667219
  15877.798  15877.800  0.500  0.031406  23.528766  22.801302  5.665279
  15878.085  15878.100  0.500  0.031474  23.520641  22.791891  5.662407
  15878.394  15878.400  0.500  0.031734  23.522841  22.788095  5.659994
  15878.703  15878.700  0.500  0.031805  23.522017  22.785671  5.658390
  15878.968  15879.000  0.500  0.031949  23.518192  22.778697  5.655612
  15879.311  15879.300  0.500  0.032187  23.517043  22.772149  5.653420
  15879.620  15879.600  0.500  0.032307  23.510624  22.763205  5.650066
  15879.896  15879.900  0.500  0.032430  23.510282  22.760074  5.649101
  15880.216  15880.200  0.500  0.032725  23.510003  22.753097  5.647746
  15880.514  15880.500  0.500  0.032852  23.500698  22.741206  5.644181
  15880.790  15880.800  0.500  0.033001  23.505360  22.742329  5.644305
  15881.111  15881.100  0.500  0.033266  23.502913  22.733917  5.642035
  15881.420  15881.400  0.500  0.033519  23.497245  22.722703  5.639656
  15881.707  15881.700  0.500  0.033817  23.501576  22.720109  5.641218
  15882.016  15882.000  0.500  0.033722  23.495184  22.716078  5.639552
  15882.292  15882.300  0.500  0.034120  23.492875  22.704818  5.638733
  15882.602  15882.600  0.500  0.034327  23.487209  22.694637  5.637592
  15882.933  15882.900  0.500  0.034707  23.483051  22.682011  5.635861
  15883.220  15883.200  0.500  0.034855  23.486286  22.681778  5.638569
  15883.486  15883.500  0.500  0.035154  23.488379  22.677011  5.640322
  15883.806  15883.800  0.500  0.035348  23.487879  22.672142  5.638973
  15884.104  15884.100  0.500  0.035591  23.484579  22.663449  5.640521
  15884.403  15884.400  0.500  0.035785  23.479438  22.654071  5.639150
  15884.701  15884.700  0.500  0.036030  23.474225  22.643499  5.640811
  15884.999  15885.000  0.500  0.036277  23.475636  22.639274  5.642174
  15885.286  15885.300  0.500  0.036408  23.474000  22.634718  5.642774
  15885.596  15885.600  0.500  0.036474  23.472285  22.631587  5.643238
  15885.762  15885.800  0.500  0.036621  23.471112  22.627117  5.642228
  15886.801  15886.790  0.500  0.037367  23.466087  22.605420  5.644709
  15887.795  15887.790  0.500  0.037824  23.454620  22.584043  5.646053
  15888.845  15888.810  0.500  0.038297  23.454549  22.573298  5.646797
  15889.907  15889.860  0.500  0.038363  23.449159  22.566604  5.648260
  15890.946  15890.920  0.500  0.038279  23.436426  22.556251  5.647888
  15892.019  15892.000  0.500  0.038386  23.435591  22.553050  5.648168
  15893.125  15893.100  0.500  0.038142  23.430856  22.553977  5.646216
  15894.253  15894.220  0.500  0.037718  23.426914  22.559757  5.644442
  15895.371  15895.360  0.500  0.037411  23.416416  22.556577  5.640480
  15896.511  15896.510  0.500  0.037165  23.410174  22.556110  5.635580
  15897.650  15897.690  0.500  0.037145  23.403588  22.550204  5.631563
  15898.868  15898.880  0.500  0.036961  23.396454  22.547483  5.626377
  15900.152  15900.100  0.500  0.036537  23.389182  22.550032  5.620701
  15901.337  15901.330  0.500  0.036218  23.377200  22.545679  5.616169
  15902.610  15902.580  0.500  0.036125  23.371443  22.542218  5.614042
  15903.884  15903.850  0.500  0.035858  23.361502  22.538657  5.614190
  15905.158  15905.140  0.500  0.035422  23.351381  22.538699  5.615608
  15906.465  15906.450  0.500  0.034960  23.342292  22.540347  5.619903
  15907.762  15907.780  0.500  0.034373  23.328040  22.539810  5.625228
  15909.136  15909.130  0.500  0.033796  23.307812  22.533268  5.629116
  15910.533  15910.500  0.500  0.033363  23.247846  22.485029  5.624681
  15911.896  15911.880  0.500  0.032940  23.093513  22.345199  5.593113
  15913.327  15913.290  0.500  0.032329  23.130406  22.394591  5.613324
  15914.768  15914.710  0.500  0.032327  23.263087  22.523090  5.650892
  15916.155  15916.150  0.500  0.032254  23.301643  22.562057  5.661588
  15917.620  15917.610  0.500  0.032125  23.291692  22.555327  5.661948
  15919.084  15919.090  0.500  0.032177  23.284648  22.547348  5.661214
  15920.549  15920.590  0.500  0.032032  23.275370  22.541638  5.657431
  15922.148  15922.110  0.500  0.032032  23.262490  22.529154  5.653899
  15923.669  15923.650  0.500  0.032163  23.254552  22.518512  5.649756
  15925.257  15925.210  0.500  0.032239  23.245601  22.508139  5.648628
  15926.801  15926.780  0.500  0.032116  23.236052  22.501650  5.645596
  15928.412  15928.380  0.500  0.031981  23.223034  22.492084  5.641154
  15929.979  15929.990  0.500  0.031966  23.207911  22.477771  5.639699
  15931.624  15931.630  0.500  0.031704  23.203661  22.479544  5.641209
  15933.269  15933.280  0.500  0.031773  23.190018  22.464776  5.640062
  15934.959  15934.950  0.500  0.031648  23.181565  22.459414  5.640027
  15936.649  15936.640  0.500  0.031664  23.168087  22.445996  5.640910
  15938.351  15938.350  0.500  0.031547  23.159064  22.439868  5.642039
  15940.087  15940.080  0.500  0.031675  23.151634  22.429805  5.644782
  15941.845  15941.830  0.500  0.031621  23.142059  22.421729  5.645613
  15943.548  15943.590  0.500  0.031438  23.126132  22.410409  5.647418
  15945.385  15945.380  0.500  0.031207  23.109041  22.399003  5.647741
  15947.167  15947.180  0.500  0.031090  23.081489  22.374933  5.645396
  15949.016  15949.010  0.500  0.030729  22.944482  22.250147  5.614713
  15950.865  15950.850  0.500  0.030545  22.897019  22.208196  5.608820
  15952.704  15952.710  0.500  0.030161  23.057905  22.372844  5.650614
  15954.599  15954.590  0.500  0.029743  23.065727  22.389792  5.655906
  15956.427  15956.490  0.500  0.029416  23.060632  22.392160  5.658557
  15958.379  15958.410  0.500  0.028858  23.045110  22.389572  5.658265
  15960.298  15960.350  0.500  0.028415  23.032892  22.387633  5.658940
  15962.272  15962.310  0.500  0.027907  23.020509  22.386954  5.661224
  15964.236  15964.280  0.500  0.027581  23.011641  22.385638  5.661331
  15966.212  15966.280  0.500  0.027325  22.995111  22.375275  5.661827
  15968.244  15968.290  0.500  0.026991  22.984759  22.372683  5.664810
  15970.567  15970.320  0.500  0.026784  22.958230  22.351484  5.661800
  15972.277  15972.380  0.500  0.026558  22.951127  22.349611  5.662296
  15974.444  15974.450  0.500  0.026590  22.932464  22.330724  5.662059
  15976.423  15976.540  0.500  0.026617  22.919623  22.317629  5.662343
  15978.715  15978.650  0.500  0.026264  22.904578  22.310836  5.661119
  15980.839  15980.780  0.500  0.026285  22.889019  22.295215  5.661273
  15983.021  15982.920  0.500  0.026044  22.857311  22.269710  5.657717
  15985.136  15985.090  0.500  0.026032  22.704710  22.121289  5.622198
  15987.329  15987.280  0.500  0.025464  22.731772  22.160239  5.635550
  15989.512  15989.480  0.500  0.025311  22.855108  22.283888  5.669137
  15991.763  15991.700  0.500  0.025088  22.844112  22.278129  5.671031
  15994.026  15993.950  0.500  0.024840  22.826973  22.266942  5.671400
  15996.278  15996.210  0.500  0.024619  22.890875  22.334208  5.691533
  15998.565  15998.490  0.500  0.024467  22.886366  22.333190  5.693262
  16000.818  16000.790  0.500  0.024247  22.869845  22.321985  5.694093
  16003.128  16003.110  0.500  0.023955  22.853706  22.312756  5.694202
  16005.462  16005.450  0.500  0.023667  22.841200  22.306965  5.694976
  16007.852  16007.800  0.500  0.023334  22.828532  22.302011  5.696223
  16010.209  16010.180  0.500  0.023052  22.813065  22.293196  5.697940
  16012.612  16012.570  0.500  0.022726  22.797568  22.285315  5.699626
  16015.038  16014.990  0.500  0.022416  22.786407  22.281313  5.700892
  16017.487  16017.420  0.500  0.022204  22.768484  22.268497  5.702223
  16019.937  16019.870  0.500  0.021717  22.740767  22.252237  5.698045
  16022.387  16022.350  0.500  0.021582  22.715737  22.230743  5.697257
  16024.839  16024.840  0.500  0.021320  22.497145  22.022578  5.645604
  16027.358  16027.350  0.500  0.020872  22.615323  22.148180  5.682952
  16029.890  16029.870  0.500  0.020633  22.654663  22.192022  5.696881
  16032.445  16032.420  0.500  0.020324  22.671860  22.215736  5.705386
  16035.024  16034.990  0.500  0.020141  22.675118  22.222992  5.710179
  16037.625  16037.570  0.500  0.019738  22.662302  22.219389  5.712407
  16040.228  16040.180  0.500  0.019345  22.643686  22.209854  5.711322
  16042.831  16042.800  0.500  0.019124  22.628277  22.199636  5.712245
  16045.470  16045.450  0.500  0.018878  22.613462  22.190576  5.712369
  16048.120  16048.110  0.500  0.018468  22.591453  22.178068  5.712259
  16050.805  16050.790  0.500  0.018386  22.585663  22.174187  5.714549
  16053.502  16053.490  0.500  0.018008  22.568368  22.165592  5.715500
  16056.234  16056.210  0.500  0.017788  22.555395  22.157730  5.716828
  16059.001  16058.950  0.500  0.017498  22.537133  22.146217  5.717981
  16061.735  16061.700  0.500  0.017128  22.524350  22.141834  5.719001
  16064.492  16064.480  0.500  0.016813  22.505451  22.130238  5.718660
  16067.296  16067.270  0.500  0.016654  22.488443  22.117020  5.720066
  16070.078  16070.090  0.500  0.016322  22.468990  22.105231  5.720121
  16072.918  16072.920  0.500  0.016055  22.446422  22.088928  5.719092
  16075.792  16075.770  0.500  0.015826  22.399956  22.048240  5.712303
  16078.668  16078.650  0.500  0.015452  22.393085  22.049731  5.715228
  16081.578  16081.540  0.500  0.015048  22.403398  22.068788  5.723255
  16084.467  16084.450  0.500  0.014990  22.393819  22.060632  5.724473
  16087.414  16087.370  0.500  0.014444  22.367378  22.046624  5.723289
  16090.305  16090.320  0.500  0.014194  22.353893  22.038832  5.724422
  16093.311  16093.290  0.500  0.013791  22.338285  22.032337  5.725887
  16096.272  16096.270  0.500  0.013524  22.321308  22.021458  5.726833
  16099.314  16099.280  0.500  0.013043  22.288800  21.999976  5.724905
  16102.334  16102.300  0.500  0.012888  22.282691  21.997345  5.726472
  16105.367  16105.350  0.500  0.012409  22.265566  21.990990  5.729030
  16108.424  16108.410  0.500  0.012122  22.248402  21.980345  5.730978
  16111.493  16111.490  0.500  0.011797  22.232035  21.971314  5.731681
  16114.586  16114.590  0.500  0.011528  22.213464  21.958847  5.732699
  16117.737  16117.710  0.500  0.011042  22.192363  21.948661  5.733631
  16120.867  16120.850  0.500  0.010800  22.163647  21.925562  5.732751
  16124.009  16124.000  0.500  0.010494  22.103821  21.873078  5.721817
  16127.164  16127.180  0.500  0.010051  22.139079  21.917675  5.735754
  16130.343  16130.370  0.500  0.009519  22.119045  21.909501  5.739860
  16133.581  16133.590  0.500  0.009408  22.105961  21.898970  5.739845
  16136.842  16136.820  0.500  0.009080  22.091068  21.891397  5.743076
  16140.127  16140.070  0.500  0.008595  22.061534  21.872722  5.740217
  16143.357  16143.350  0.500  0.008295  22.035871  21.853839  5.739833
  16146.611  16146.640  0.500  0.007964  21.999498  21.824995  5.736958
  16149.935  16149.950  0.500  0.007482  22.005026  21.840988  5.744115
  16153.306  16153.270  0.500  0.007067  21.981974  21.827183  5.742993
  16156.656  16156.620  0.500  0.006849  21.968991  21.819036  5.745349
  16159.984  16159.990  0.500  0.006505  21.947717  21.805405  5.746244
  16163.370  16163.370  0.500  0.006126  21.930159  21.796216  5.746662
  16166.758  16166.780  0.500  0.005711  21.909763  21.784985  5.748950
  16170.216  16170.200  0.500  0.005254  21.884245  21.769562  5.748842
  16173.687  16173.650  0.500  0.005160  21.811869  21.699607  5.736170
  16177.114  16177.110  0.500  0.004485  21.849756  21.751971  5.753165
  16180.588  16180.590  0.500  0.004279  21.829526  21.736324  5.753661
  16184.075  16184.090  0.500  0.003885  21.817770  21.733167  5.754912
  16187.644  16187.610  0.500  0.003351  21.789109  21.716226  5.755172
  16191.192  16191.150  0.500  0.003013  21.766631  21.701151  5.755791
  16194.718  16194.700  0.500  0.002766  21.745897  21.685829  5.756193
  16198.257  16198.280  0.500  0.002322  21.724407  21.674017  5.757616
  16201.867  16201.880  0.500  0.001821  21.699107  21.659621  5.757011
  16205.524  16205.490  0.500  0.001461  21.681730  21.650078  5.759188
  16209.149  16209.120  0.500  0.001019  21.654157  21.632099  5.758530
  16212.764  16212.780  0.500  0.000637  21.631488  21.617714  5.759242
  16216.438  16216.450  0.500  0.000454  21.615183  21.605378  5.759430
  16220.148  16220.140  0.500  -0.000169  21.589619  21.593259  5.760412
  16223.871  16223.850  0.500  -0.000543  21.559489  21.571206  5.759348
  16227.619  16227.580  0.500  -0.000966  21.535696  21.556507  5.759828
  16231.334  16231.320  0.500  -0.001389  21.506395  21.536295  5.758895
  16235.098  16235.090  0.500  -0.001827  21.446557  21.485784  5.748739
  16238.932  16238.880  0.500  -0.002224  21.464292  21.512073  5.760639
  16242.710  16242.680  0.500  -0.002770  21.448618  21.508117  5.763520
  16246.525  16246.510  0.500  -0.003066  21.416886  21.482651  5.760862
  16250.365  16250.350  0.500  -0.003356  21.397394  21.469329  5.763294
  16254.195  16254.210  0.500  -0.003715  21.335218  21.414623  5.752989
  16258.131  16258.090  0.500  -0.004184  21.343890  21.433375  5.763273
  16262.011  16261.990  0.500  -0.004683  21.319843  21.419910  5.763894
  16265.927  16265.910  0.500  -0.005115  21.295934  21.405151  5.764001
  16269.834  16269.850  0.500  -0.005431  21.268778  21.384598  5.761491
  16273.836  16273.810  0.500  -0.005873  21.233666  21.358729  5.760736
  16277.816  16277.780  0.500  -0.006372  21.216560  21.352194  5.761920
  16281.787  16281.780  0.500  -0.006681  21.192449  21.334516  5.763087
  16285.771  16285.790  0.500  -0.007330  21.157286  21.312944  5.760291
  16289.874  16289.830  0.500  -0.007702  21.140949  21.304405  5.761489
  16293.920  16293.880  0.500  -0.008048  21.108383  21.278958  5.760747
  16297.992  16297.950  0.500  -0.008710  21.094404  21.278946  5.764999
  16302.066  16302.040  0.500  -0.008936  21.067147  21.256238  5.764181
  16306.165  16306.150  0.500  -0.009418  20.976801  21.175304  5.746147
  16310.324  16310.280  0.500  -0.009921  20.998567  21.207936  5.760311
  16314.451  16314.430  0.500  -0.010345  20.993807  21.212121  5.764954
  16318.591  16318.590  0.500  -0.010727  20.957078  21.183095  5.763206
  16322.769  16322.780  0.500  -0.011252  20.936596  21.173503  5.765614
  16327.007  16326.980  0.500  -0.011504  20.903663  21.145532  5.762344
  16331.236  16331.210  0.500  -0.011980  20.887721  21.139464  5.764192
  16335.443  16335.450  0.500  -0.012384  20.863871  21.123862  5.763990
  16339.723  16339.710  0.500  -0.012779  20.828821  21.096700  5.762648
  16344.017  16343.990  0.500  -0.013504  20.801311  21.084113  5.763968
  16348.313  16348.290  0.500  -0.013957  20.783207  21.075317  5.765572
  16352.646  16352.610  0.500  -0.014081  20.754097  21.048410  5.764871
  16356.935  16356.950  0.500  -0.014664  20.732360  21.038617  5.766005
  16361.309  16361.310  0.500  -0.015277  20.705212  21.023944  5.766607
  16365.719  16365.690  0.500  -0.015572  20.682550  21.007132  5.768173
  16370.109  16370.080  0.500  -0.016083  20.638633  20.973247  5.762510
  16374.513  16374.500  0.500  -0.016449  20.568214  20.909338  5.751609
  16378.966  16378.930  0.500  -0.016894  20.607743  20.958846  5.768312
  16383.422  16383.380  0.500  -0.017296  20.579299  20.938330  5.768988
  16387.845  16387.850  0.500  -0.017902  20.549816  20.921007  5.767795
  16392.352  16392.340  0.500  -0.018392  20.515480  20.896296  5.765376
  16396.874  16396.850  0.500  -0.018837  20.497395  20.887159  5.768342
  16401.434  16401.380  0.500  -0.019275  20.444748  20.842639  5.762733
  16405.938  16405.930  0.500  -0.019687  20.441721  20.848142  5.769176
  16410.503  16410.500  0.500  -0.020124  20.428706  20.843969  5.772441
  16415.117  16415.080  0.500  -0.020740  20.397539  20.825006  5.771269
  16419.711  16419.690  0.500  -0.021221  20.359648  20.796316  5.768735
  16424.284  16424.310  0.500  -0.021761  20.340319  20.787805  5.772178
  16428.965  16428.960  0.500  -0.022155  20.314417  20.769512  5.771738
  16433.638  16433.620  0.500  -0.022548  20.287675  20.750310  5.772192
  16438.301  16438.300  0.500  -0.022967  20.235906  20.706035  5.765420
  16443.026  16443.000  0.500  -0.023462  20.187489  20.666721  5.757915
  16447.742  16447.720  0.500  -0.024072  20.209322  20.701711  5.774471
  16452.520  16452.460  0.500  -0.024591  20.190038  20.692685  5.778620
  16457.206  16457.210  0.500  -0.025084  20.157290  20.669301  5.774873
  16461.990  16461.990  0.500  -0.025781  20.120653  20.646120  5.774700
  16466.824  16466.790  0.500  -0.026014  20.110218  20.640237  5.777803
  16471.649  16471.600  0.500  -0.026456  20.068264  20.606267  5.774377
  16476.429  16476.430  0.500  -0.026989  20.049143  20.597610  5.776233
  16481.331  16481.290  0.500  -0.027416  20.016808  20.573190  5.776196
  16486.201  16486.160  0.500  -0.028186  19.985304  20.556633  5.777119
  16491.085  16491.050  0.500  -0.028456  19.965706  20.542017  5.777326
  16495.972  16495.960  0.500  -0.029133  19.940764  20.530250  5.778265
  16500.945  16500.890  0.500  -0.029477  19.907334  20.502871  5.775513
  16505.874  16505.830  0.500  -0.029988  19.883067  20.488352  5.777770
  16510.829  16510.800  0.500  -0.030395  19.864163  20.477209  5.780917
  16515.836  16515.790  0.500  -0.031007  19.833475  20.458090  5.780335
  16520.833  16520.790  0.500  -0.031409  19.803774  20.435661  5.779512
  16525.834  16525.820  0.500  -0.032050  19.774024  20.418049  5.779522
  16530.849  16530.860  0.500  -0.032553  19.743710  20.397008  5.779221
  16535.928  16535.920  0.500  -0.033027  19.719749  20.381901  5.780641
  16541.045  16541.000  0.500  -0.033310  19.696176  20.363308  5.781153
  16546.082  16546.100  0.500  -0.034018  19.635984  20.315457  5.771567
  16551.242  16551.220  0.500  -0.034456  19.638072  20.326504  5.781056
  16556.393  16556.360  0.500  -0.035032  19.617002  20.316397  5.785022
  16561.560  16561.520  0.500  -0.035590  19.575925  20.285170  5.781264
  16566.729  16566.700  0.500  -0.036018  19.557031  20.274280  5.784662
  16571.963  16571.890  0.500  -0.036651  19.517758  20.246374  5.782200
  16577.163  16577.110  0.500  -0.037238  19.486113  20.225424  5.781391
  16582.342  16582.340  0.500  -0.037669  19.456871  20.203769  5.779888
  16587.634  16587.590  0.500  -0.037946  19.449972  20.202207  5.786066
  16592.904  16592.860  0.500  -0.038547  19.411497  20.174359  5.782783
  16598.214  16598.150  0.500  -0.039097  19.388649  20.161702  5.784595
  16603.467  16603.460  0.500  -0.039612  19.354038  20.136075  5.783182
  16608.833  16608.790  0.500  -0.040217  19.332293  20.125618  5.785175
  16614.177  16614.140  0.500  -0.040850  19.292609  20.097040  5.783279
  16619.562  16619.510  0.500  -0.041148  19.256441  20.065326  5.780595
  16624.938  16624.890  0.500  -0.041810  19.243314  20.064927  5.786881
  16630.365  16630.300  0.500  -0.042197  19.215585  20.043774  5.785601
  16635.809  16635.720  0.500  -0.042912  19.179056  20.019980  5.783492
  16641.171  16641.170  0.500  -0.043366  19.155092  20.004047  5.784024
  16646.646  16646.630  0.500  -0.043919  19.120608  19.979086  5.784240
  16652.149  16652.110  0.500  -0.044424  19.091834  19.959085  5.783252
  16657.643  16657.610  0.500  -0.044979  19.054462  19.931085  5.781892
  16663.177  16663.130  0.500  -0.045642  19.021564  19.909867  5.779253
  16668.728  16668.670  0.500  -0.046118  18.988177  19.884372  5.777681
  16674.245  16674.220  0.500  -0.046699  18.961911  19.868411  5.778510
  16679.827  16679.800  0.500  -0.047204  18.921256  19.835830  5.776437
  16685.438  16685.400  0.500  -0.047642  18.880521  19.801800  5.772094
  16691.089  16691.010  0.500  -0.048308  18.847825  19.780683  5.771314
  16696.682  16696.650  0.500  -0.048770  18.800868  19.740517  5.765921
  16702.353  16702.300  0.500  -0.049324  18.729661  19.676649  5.753119
  16707.991  16707.970  0.500  -0.049909  18.603010  19.555021  5.723733
  16713.718  16713.660  0.500  -0.050238  17.946337  18.870959  5.525105
