# XDI/1.0 BlueSky/1.10.0 BMM/2023-1.0-py310-tiled
# Beamline.name: BMM (06BM) -- Beamline for Materials Measurement (NIST)
# Beamline.xray_source: NSLS-II three-pole wiggler
# Beamline.collimation: paraboloid mirror, 5 nm Rh on 30 nm Pt
# Beamline.focusing: not in use
# Beamline.harmonic_rejection: flat mirror, Pt stripe, pitch = 7.0 mrad relative to beam
# Beamline.software: Bluesky 1.10.0, Ophyd 1.7.0, DataBroker 2.0.0b13, Python 3.10.8, 2023-1.0-py310-tiled
# Detector.I0: 10 cm N2
# Detector.I1: 25 cm N2
# Detector.I2: 25 cm N2
# Element.symbol: Pb
# Element.edge: L1
# Element.reference: Pb
# Element.reference_material: Pb foil
# Facility.name: NSLS-II
# Facility.energy: 3.0
# Facility.current: 399.0
# Facility.mode: top-off
# Facility.GUP: 301027
# Facility.SAF: 310583
# Facility.cycle: 2023-2
# Mono.name: Si(111)
# Mono.d_spacing: 3.1351860
# Mono.encoder_resolution: 0.0000050 deg/ct
# Mono.angle_offset: 16.0754326 deg
# Mono.scan_mode: pseudo channel cut
# Mono.scan_type: step
# Mono.direction: forward in energy
# Sample.name: PbO2
# Sample.prep: powder in PEG pellet
# Sample.x: 143.785 mm
# Sample.y: 114.695 mm
# Sample.SDD_position: 205.000 mm
# Scan.experimenters: Bruce Ravel
# Scan.edge_energy: 15860.8
# Scan.start_time: 2023-06-23T18:03:12
# Scan.end_time: 2023-06-23T18:11:58
# Scan.transient_id: 84921
# Scan.uid: 1eb2f177-f428-4115-b19f-fd7987c6c735
# Scan.plot_hint: ln(I0/It)  --  ln($5/$6)
# Column.1: energy eV
# Column.2: requested_energy eV
# Column.3: measurement_time seconds
# Column.4: xmu 
# Column.5: I0 nA
# Column.6: It nA
# Column.7: Ir nA
# ///////////
# BMM standards collection
# -----------
# energy  requested_energy  measurement_time  xmu  I0  It  Ir
  15660.827  15660.800  0.500  0.585543  24.821527  13.820706  3.859456
  15670.895  15670.800  0.500  0.584322  24.677064  13.757060  3.846873
  15680.847  15680.800  0.500  0.583057  24.690114  13.781765  3.862620
  15690.865  15690.800  0.500  0.581544  24.653680  13.782256  3.868950
  15700.885  15700.800  0.500  0.580245  24.592622  13.765995  3.871033
  15710.930  15710.800  0.500  0.578774  24.523870  13.747721  3.872171
  15720.868  15720.800  0.500  0.577249  24.475654  13.741633  3.878059
  15730.916  15730.800  0.500  0.575722  24.413941  13.727935  3.880413
  15740.836  15740.800  0.500  0.574710  24.360746  13.711880  3.882298
  15750.845  15750.800  0.500  0.573648  24.293649  13.688655  3.881748
  15760.878  15760.800  0.500  0.572570  24.236021  13.670911  3.882201
  15770.869  15770.800  0.500  0.571192  24.183542  13.660112  3.884330
  15780.894  15780.800  0.500  0.569481  24.129023  13.652667  3.885617
  15790.889  15790.800  0.500  0.568121  24.072138  13.639015  3.885929
  15800.897  15800.800  0.500  0.567310  24.014135  13.617182  3.883844
  15810.928  15810.800  0.500  0.566728  23.954285  13.591154  3.878028
  15820.720  15820.800  0.500  0.567377  23.898833  13.550902  3.865866
  15830.744  15830.800  0.500  0.568557  23.834324  13.498384  3.843845
  15832.686  15832.800  0.500  0.569106  23.824278  13.485291  3.837185
  15834.706  15834.800  0.500  0.569514  23.813701  13.473803  3.831479
  15836.694  15836.800  0.500  0.570351  23.802915  13.456430  3.822875
  15838.715  15838.800  0.500  0.571187  23.790357  13.438097  3.811649
  15840.758  15840.800  0.500  0.572572  23.781067  13.414255  3.798511
  15842.726  15842.800  0.500  0.573835  23.768773  13.390401  3.783863
  15844.726  15844.800  0.500  0.575780  23.754056  13.356106  3.764943
  15846.716  15846.800  0.500  0.578034  23.741697  13.319101  3.740600
  15848.718  15848.800  0.500  0.580966  23.730205  13.273668  3.711294
  15850.731  15850.800  0.500  0.585025  23.705863  13.206342  3.667663
  15851.006  15851.100  0.500  0.585726  23.706753  13.197587  3.661094
  15851.325  15851.400  0.500  0.586501  23.702702  13.185107  3.653569
  15851.600  15851.700  0.500  0.587464  23.701642  13.171827  3.647154
  15851.930  15852.000  0.500  0.588145  23.699699  13.161787  3.638498
  15852.238  15852.300  0.500  0.588866  23.694263  13.149282  3.629505
  15852.524  15852.600  0.500  0.590010  23.696220  13.135329  3.621555
  15852.821  15852.900  0.500  0.590625  23.694431  13.126259  3.612326
  15853.141  15853.200  0.500  0.591548  23.690576  13.112014  3.602202
  15853.449  15853.500  0.500  0.592788  23.696224  13.098896  3.592100
  15853.735  15853.800  0.500  0.593666  23.696643  13.087634  3.583614
  15854.032  15854.100  0.500  0.594849  23.698136  13.072978  3.572474
  15854.362  15854.400  0.500  0.596117  23.694388  13.054346  3.560372
  15854.626  15854.700  0.500  0.597089  23.693430  13.041138  3.548346
  15854.946  15855.000  0.500  0.598589  23.693864  13.021830  3.535931
  15855.276  15855.300  0.500  0.600060  23.694626  13.003103  3.523061
  15855.562  15855.600  0.500  0.601357  23.693944  12.985875  3.508890
  15855.837  15855.900  0.500  0.602929  23.693381  12.965167  3.495254
  15856.146  15856.200  0.500  0.604409  23.689455  12.943858  3.478782
  15856.443  15856.500  0.500  0.606132  23.685201  12.919251  3.462252
  15856.729  15856.800  0.500  0.607803  23.686155  12.898200  3.444456
  15857.048  15857.100  0.500  0.609673  23.682191  12.871953  3.426271
  15857.368  15857.400  0.500  0.611822  23.679135  12.842658  3.405725
  15857.643  15857.700  0.500  0.613915  23.675615  12.813901  3.387352
  15857.951  15858.000  0.500  0.616153  23.673217  12.783962  3.366473
  15858.249  15858.300  0.500  0.618654  23.668546  12.749512  3.344660
  15858.535  15858.600  0.500  0.621064  23.666946  12.717962  3.323476
  15858.854  15858.900  0.500  0.623825  23.663444  12.681025  3.299200
  15859.185  15859.200  0.500  0.626658  23.660959  12.643814  3.273507
  15859.460  15859.500  0.500  0.629510  23.657731  12.606090  3.249784
  15859.769  15859.800  0.500  0.632518  23.653574  12.566022  3.225592
  15860.066  15860.100  0.500  0.635667  23.651355  12.525339  3.199462
  15860.341  15860.400  0.500  0.638859  23.651202  12.485334  3.175407
  15860.661  15860.700  0.500  0.642509  23.649215  12.438807  3.148459
  15860.991  15861.000  0.500  0.646367  23.652064  12.392394  3.121725
  15861.289  15861.300  0.500  0.649786  23.646203  12.347037  3.097829
  15861.597  15861.600  0.500  0.653559  23.649192  12.302099  3.073033
  15861.895  15861.900  0.500  0.657596  23.645256  12.250501  3.048381
  15862.181  15862.200  0.500  0.660948  23.644062  12.208887  3.026554
  15862.501  15862.500  0.500  0.665346  23.641613  12.154046  3.003050
  15862.809  15862.800  0.500  0.669128  23.636833  12.105716  2.980963
  15863.085  15863.100  0.500  0.672751  23.636519  12.061777  2.962418
  15863.393  15863.400  0.500  0.676526  23.631063  12.013557  2.944001
  15863.713  15863.700  0.500  0.680593  23.633283  11.965928  2.925462
  15864.010  15864.000  0.500  0.684287  23.632051  11.921177  2.909145
  15864.308  15864.300  0.500  0.687818  23.629026  11.877647  2.895007
  15864.605  15864.600  0.500  0.691193  23.624206  11.835209  2.880928
  15864.903  15864.900  0.500  0.694405  23.623053  11.796681  2.870089
  15865.201  15865.200  0.500  0.697720  23.621683  11.756960  2.858521
  15865.487  15865.500  0.500  0.700626  23.620214  11.722109  2.849470
  15865.763  15865.800  0.500  0.703063  23.615767  11.691373  2.842084
  15866.071  15866.100  0.500  0.705861  23.615600  11.658623  2.835268
  15866.380  15866.400  0.500  0.708254  23.615534  11.630735  2.829488
  15866.656  15866.700  0.500  0.710196  23.611544  11.606206  2.826978
  15866.975  15867.000  0.500  0.711985  23.608762  11.584095  2.822693
  15867.262  15867.300  0.500  0.713684  23.607275  11.563706  2.820062
  15867.549  15867.600  0.500  0.714706  23.603679  11.550129  2.820262
  15867.868  15867.900  0.500  0.715757  23.602470  11.537403  2.819488
  15868.188  15868.200  0.500  0.716397  23.600755  11.529184  2.821920
  15868.464  15868.500  0.500  0.716945  23.598056  11.521548  2.823179
  15868.773  15868.800  0.500  0.717378  23.595889  11.515509  2.825739
  15869.070  15869.100  0.500  0.717095  23.593428  11.517565  2.828391
  15869.368  15869.400  0.500  0.717116  23.590133  11.515718  2.832280
  15869.699  15869.700  0.500  0.716625  23.588988  11.520808  2.835410
  15870.008  15870.000  0.500  0.716052  23.586306  11.526105  2.841482
  15870.272  15870.300  0.500  0.715297  23.583548  11.533455  2.845949
  15870.603  15870.600  0.500  0.714211  23.582251  11.545358  2.852147
  15870.890  15870.900  0.500  0.713027  23.580515  11.558186  2.856310
  15871.210  15871.200  0.500  0.711998  23.575800  11.567769  2.861991
  15871.530  15871.500  0.500  0.710631  23.572615  11.582030  2.869023
  15871.817  15871.800  0.500  0.709290  23.569549  11.596063  2.873081
  15872.103  15872.100  0.500  0.708128  23.573927  11.611699  2.878635
  15872.412  15872.400  0.500  0.706423  23.565733  11.627469  2.883765
  15872.688  15872.700  0.500  0.704990  23.562363  11.642483  2.887727
  15873.008  15873.000  0.500  0.703592  23.557843  11.656531  2.893122
  15873.350  15873.300  0.500  0.702063  23.555827  11.673374  2.897683
  15873.582  15873.600  0.500  0.700587  23.553850  11.689637  2.901725
  15873.902  15873.900  0.500  0.699101  23.548635  11.704421  2.905825
  15874.222  15874.200  0.500  0.697503  23.548898  11.723267  2.910120
  15874.498  15874.500  0.500  0.696406  23.550553  11.736963  2.913384
  15874.796  15874.800  0.500  0.694878  23.543830  11.751562  2.916930
  15875.116  15875.100  0.500  0.693531  23.544521  11.767737  2.920909
  15875.403  15875.400  0.500  0.692185  23.540542  11.781597  2.923072
  15875.679  15875.700  0.500  0.691086  23.540340  11.794451  2.926281
  15875.988  15876.000  0.500  0.690046  23.541256  11.807192  2.928565
  15876.286  15876.300  0.500  0.688672  23.536988  11.821282  2.931887
  15876.584  15876.600  0.500  0.687574  23.536900  11.834226  2.933607
  15876.893  15876.900  0.500  0.686398  23.533018  11.846190  2.936187
  15877.191  15877.200  0.500  0.685470  23.531854  11.856608  2.939138
  15877.478  15877.500  0.500  0.684367  23.526171  11.866818  2.940493
  15877.776  15877.800  0.500  0.683481  23.528106  11.878318  2.942897
  15878.085  15878.100  0.500  0.682517  23.523181  11.887288  2.944400
  15878.372  15878.400  0.500  0.681637  23.519954  11.896116  2.945976
  15878.703  15878.700  0.500  0.680546  23.515674  11.906936  2.946530
  15878.979  15879.000  0.500  0.679708  23.514990  11.916576  2.949000
  15879.288  15879.300  0.500  0.678843  23.509429  11.924062  2.951205
  15879.598  15879.600  0.500  0.678021  23.507526  11.932906  2.952537
  15879.896  15879.900  0.500  0.677056  23.505266  11.943275  2.954553
  15880.183  15880.200  0.500  0.676544  23.502933  11.948203  2.955388
  15880.503  15880.500  0.500  0.675596  23.495169  11.955586  2.957685
  15880.801  15880.800  0.500  0.674844  23.492481  11.963217  2.960160
  15881.111  15881.100  0.500  0.674136  23.487765  11.969279  2.961269
  15881.409  15881.400  0.500  0.673581  23.490680  11.977415  2.963494
  15881.718  15881.700  0.500  0.672965  23.480712  11.979703  2.966168
  15882.005  15882.000  0.500  0.672368  23.479954  11.986475  2.966637
  15882.326  15882.300  0.500  0.671657  23.477135  11.993557  2.969753
  15882.624  15882.600  0.500  0.670826  23.471143  12.000468  2.971521
  15882.889  15882.900  0.500  0.670672  23.471256  12.002380  2.974107
  15883.220  15883.200  0.500  0.669967  23.464876  12.007572  2.976011
  15883.519  15883.500  0.500  0.669384  23.460429  12.012296  2.978307
  15883.806  15883.800  0.500  0.668747  23.457388  12.018397  2.980546
  15884.126  15884.100  0.500  0.668361  23.454729  12.021670  2.983031
  15884.425  15884.400  0.500  0.667797  23.451219  12.026652  2.985012
  15884.712  15884.700  0.500  0.667260  23.445679  12.030270  2.986830
  15885.010  15885.000  0.500  0.666950  23.444304  12.033300  2.989629
  15885.298  15885.300  0.500  0.666451  23.442198  12.038216  2.990711
  15885.585  15885.600  0.500  0.665850  23.434776  12.041644  2.993407
  15885.784  15885.800  0.500  0.665794  23.430687  12.040218  2.993953
  15886.778  15886.790  0.500  0.664371  23.426883  12.055403  3.001116
  15887.784  15887.790  0.500  0.662874  23.417511  12.068639  3.007111
  15888.801  15888.810  0.500  0.661503  23.407811  12.080183  3.014176
  15889.863  15889.860  0.500  0.660310  23.401284  12.091236  3.017976
  15890.957  15890.920  0.500  0.659517  23.395346  12.097757  3.019866
  15892.030  15892.000  0.500  0.659017  23.389922  12.101007  3.020341
  15893.103  15893.100  0.500  0.658896  23.384641  12.099733  3.018867
  15894.242  15894.220  0.500  0.659368  23.376250  12.089684  3.016288
  15895.393  15895.360  0.500  0.659857  23.366901  12.078945  3.010718
  15896.499  15896.510  0.500  0.660449  23.356967  12.066655  3.004936
  15897.673  15897.690  0.500  0.661388  23.349100  12.051280  2.999439
  15898.868  15898.880  0.500  0.662448  23.341445  12.034563  2.992155
  15900.086  15900.100  0.500  0.663386  23.332093  12.018456  2.985467
  15901.348  15901.330  0.500  0.664232  23.324194  12.004230  2.980859
  15902.599  15902.580  0.500  0.665178  23.314545  11.987914  2.975273
  15903.873  15903.850  0.500  0.666261  23.325820  11.980739  2.974197
  15905.158  15905.140  0.500  0.667754  23.334148  11.967130  2.973181
  15906.432  15906.450  0.500  0.668617  23.320485  11.949802  2.970995
  15907.773  15907.780  0.500  0.669561  23.309089  11.932698  2.967560
  15909.125  15909.130  0.500  0.670776  23.293596  11.910292  2.966482
  15910.455  15910.500  0.500  0.671746  23.232824  11.867701  2.957977
  15911.907  15911.880  0.500  0.672533  23.067098  11.773776  2.937681
  15913.282  15913.290  0.500  0.673521  23.113624  11.785872  2.945958
  15914.680  15914.710  0.500  0.674005  23.248446  11.848884  2.963254
  15916.166  15916.150  0.500  0.674616  23.276887  11.856131  2.965472
  15917.586  15917.610  0.500  0.674834  23.268779  11.849419  2.965408
  15919.051  15919.090  0.500  0.674982  23.260893  11.843643  2.963337
  15920.605  15920.590  0.500  0.674868  23.250047  11.839475  2.962212
  15922.059  15922.110  0.500  0.674587  23.237499  11.836407  2.961954
  15924.135  15923.650  0.500  0.673991  23.224261  11.836715  2.960927
  15925.113  15925.210  0.500  0.673529  23.220094  11.840064  2.961685
  15926.723  15926.780  0.500  0.672795  23.203882  11.840488  2.961760
  15928.256  15928.380  0.500  0.671726  23.197347  11.849816  2.962813
  15930.134  15929.990  0.500  0.670403  23.189061  11.861264  2.966904
  15931.546  15931.630  0.500  0.669369  23.183055  11.870453  2.969754
  15933.191  15933.280  0.500  0.668012  23.168876  11.879309  2.972403
  15934.892  15934.950  0.500  0.666533  23.159345  11.891994  2.977692
  15936.527  15936.640  0.500  0.665258  23.149271  11.901988  2.981572
  15938.251  15938.350  0.500  0.664101  23.136536  11.909213  2.985947
  15939.987  15940.080  0.500  0.662919  23.128854  11.919341  2.990128
  15941.745  15941.830  0.500  0.662014  23.116484  11.923744  2.993092
  15943.537  15943.590  0.500  0.661118  23.102472  11.927197  2.996840
  15945.341  15945.380  0.500  0.660365  23.088464  11.928946  2.998261
  15947.156  15947.180  0.500  0.660084  23.067719  11.921581  2.998533
  15948.971  15949.010  0.500  0.659557  22.929480  11.856384  2.982483
  15950.810  15950.850  0.500  0.659071  22.878990  11.836021  2.980006
  15952.682  15952.710  0.500  0.658683  23.042835  11.925410  3.002626
  15954.532  15954.590  0.500  0.658130  23.056384  11.939024  3.006583
  15956.439  15956.490  0.500  0.657715  23.042731  11.936912  3.006209
  15958.368  15958.410  0.500  0.657464  23.030874  11.933765  3.007041
  15960.298  15960.350  0.500  0.657170  23.020035  11.931651  3.006250
  15962.261  15962.310  0.500  0.656949  23.007411  11.927748  3.007299
  15964.236  15964.280  0.500  0.656803  22.994376  11.922730  3.006872
  15966.246  15966.280  0.500  0.656688  22.981584  11.917468  3.006159
  15968.278  15968.290  0.500  0.656799  22.972248  11.911309  3.006012
  15970.322  15970.320  0.500  0.656986  22.961395  11.903451  3.005360
  15972.388  15972.380  0.500  0.657086  22.945015  11.893773  3.003522
  15974.456  15974.450  0.500  0.657383  22.932903  11.883957  3.003808
  15976.512  15976.540  0.500  0.657702  22.923857  11.875489  3.002229
  15978.625  15978.650  0.500  0.657857  22.913023  11.868038  3.001372
  15980.728  15980.780  0.500  0.657943  22.887608  11.853846  3.000141
  15982.864  15982.920  0.500  0.657992  22.863695  11.840883  2.998405
  15985.024  15985.090  0.500  0.657844  22.698597  11.757117  2.978579
  15987.240  15987.280  0.500  0.657577  22.735768  11.779522  2.985627
  15989.468  15989.480  0.500  0.657294  22.858451  11.846428  3.004005
  15991.685  15991.700  0.500  0.656935  22.850572  11.846600  3.005922
  15993.959  15993.950  0.500  0.656696  22.835026  11.841374  3.006972
  15996.222  15996.210  0.500  0.656285  22.816367  11.836556  3.007744
  15998.486  15998.490  0.500  0.655709  22.807332  11.838697  3.009072
  16000.762  16000.790  0.500  0.655166  22.795293  11.838874  3.010102
  16003.072  16003.110  0.500  0.654609  22.779190  11.837099  3.011412
  16005.428  16005.450  0.500  0.653847  22.759473  11.835863  3.012478
  16007.784  16007.800  0.500  0.653311  22.751331  11.837980  3.014849
  16010.186  16010.180  0.500  0.652519  22.733463  11.838054  3.016658
  16012.567  16012.570  0.500  0.651909  22.720067  11.838290  3.018849
  16015.004  16014.990  0.500  0.651094  22.704738  11.839950  3.020858
  16017.442  16017.420  0.500  0.650227  22.689490  11.842259  3.021653
  16019.892  16019.870  0.500  0.649617  22.666850  11.837664  3.023161
  16022.342  16022.350  0.500  0.649093  22.637118  11.828335  3.021226
  16024.805  16024.840  0.500  0.648439  22.417394  11.721189  2.995957
  16027.347  16027.350  0.500  0.647794  22.539736  11.792758  3.016647
  16029.879  16029.870  0.500  0.647363  22.582540  11.820243  3.024897
  16032.411  16032.420  0.500  0.647115  22.604234  11.834540  3.030614
  16035.024  16034.990  0.500  0.646500  22.604174  11.841784  3.033505
  16037.603  16037.570  0.500  0.645935  22.587534  11.839753  3.034031
  16040.160  16040.180  0.500  0.645733  22.574142  11.835128  3.035240
  16042.809  16042.800  0.500  0.645297  22.561473  11.833649  3.034687
  16045.458  16045.450  0.500  0.644854  22.542112  11.828734  3.036459
  16048.086  16048.110  0.500  0.644129  22.528855  11.830347  3.038338
  16050.771  16050.790  0.500  0.643650  22.508816  11.825487  3.038992
  16053.491  16053.490  0.500  0.643154  22.492878  11.822973  3.039231
  16056.223  16056.210  0.500  0.642929  22.482194  11.820018  3.040176
  16058.956  16058.950  0.500  0.642828  22.467052  11.813251  3.040966
  16061.678  16061.700  0.500  0.642443  22.450045  11.808855  3.040928
  16064.447  16064.480  0.500  0.642208  22.430089  11.801128  3.042372
  16067.240  16067.270  0.500  0.641625  22.413692  11.799379  3.042922
  16070.078  16070.090  0.500  0.641274  22.398222  11.795372  3.043028
  16072.940  16072.920  0.500  0.640844  22.381812  11.791799  3.044269
  16075.781  16075.770  0.500  0.640647  22.327324  11.765412  3.038635
  16078.634  16078.650  0.500  0.640350  22.324934  11.767649  3.040888
  16081.522  16081.540  0.500  0.640081  22.335823  11.776557  3.045483
  16084.467  16084.450  0.500  0.639787  22.317299  11.770247  3.044824
  16087.403  16087.370  0.500  0.639555  22.300063  11.763892  3.044036
  16090.339  16090.320  0.500  0.639393  22.286185  11.758469  3.045723
  16093.311  16093.290  0.500  0.638948  22.267652  11.753922  3.045013
  16096.272  16096.270  0.500  0.638307  22.247820  11.750987  3.046262
  16099.268  16099.280  0.500  0.637849  22.220051  11.741697  3.045583
  16102.300  16102.300  0.500  0.637125  22.206564  11.743067  3.048671
  16105.355  16105.350  0.500  0.636346  22.199053  11.748243  3.051630
  16108.435  16108.410  0.500  0.635561  22.179293  11.747008  3.053084
  16111.504  16111.490  0.500  0.634885  22.160531  11.745003  3.054938
  16114.597  16114.590  0.500  0.634138  22.143349  11.744667  3.056996
  16117.714  16117.710  0.500  0.633325  22.121595  11.742674  3.057568
  16120.867  16120.850  0.500  0.632818  22.091276  11.732519  3.058413
  16124.009  16124.000  0.500  0.632096  22.032705  11.709869  3.054628
  16127.198  16127.180  0.500  0.631532  22.066780  11.734599  3.062739
  16130.366  16130.370  0.500  0.630783  22.051317  11.735154  3.063916
  16133.581  16133.590  0.500  0.630275  22.031043  11.730327  3.065604
  16136.819  16136.820  0.500  0.629702  22.017678  11.729932  3.066165
  16140.105  16140.070  0.500  0.629097  21.997790  11.726431  3.069125
  16143.380  16143.350  0.500  0.628921  21.969445  11.713376  3.067806
  16146.646  16146.640  0.500  0.628025  21.932313  11.704066  3.066461
  16149.935  16149.950  0.500  0.627491  21.942334  11.715669  3.072044
  16153.283  16153.270  0.500  0.626924  21.921551  11.711211  3.072252
  16156.633  16156.620  0.500  0.626648  21.904873  11.705528  3.073736
  16160.018  16159.990  0.500  0.626106  21.890260  11.704055  3.074517
  16163.359  16163.370  0.500  0.625358  21.866912  11.700331  3.075798
  16166.804  16166.780  0.500  0.624584  21.850709  11.700712  3.078325
  16170.239  16170.200  0.500  0.624167  21.827652  11.693236  3.078825
  16173.687  16173.650  0.500  0.623394  21.754787  11.663214  3.072209
  16177.137  16177.110  0.500  0.622939  21.794655  11.689908  3.083005
  16180.611  16180.590  0.500  0.622473  21.768605  11.681381  3.083012
  16184.087  16184.090  0.500  0.621888  21.765596  11.686600  3.086611
  16187.598  16187.610  0.500  0.621682  21.821255  11.718896  3.096532
  16191.180  16191.150  0.500  0.621263  21.800584  11.712695  3.097903
  16194.753  16194.700  0.500  0.620684  21.775483  11.705994  3.097874
  16198.292  16198.280  0.500  0.620226  21.752492  11.698982  3.099353
  16201.856  16201.880  0.500  0.619596  21.737347  11.698209  3.100639
  16205.501  16205.490  0.500  0.619000  21.719991  11.695843  3.101875
  16209.138  16209.120  0.500  0.618129  21.699920  11.695214  3.104395
  16212.775  16212.780  0.500  0.617557  21.681005  11.691700  3.105806
  16216.472  16216.450  0.500  0.617012  21.660177  11.686844  3.106076
  16220.136  16220.140  0.500  0.616275  21.635653  11.682211  3.107673
  16223.871  16223.850  0.500  0.615597  21.621257  11.682358  3.110635
  16227.596  16227.580  0.500  0.615081  21.603151  11.678606  3.111001
  16231.334  16231.320  0.500  0.614508  21.576940  11.671115  3.111460
  16235.109  16235.090  0.500  0.613720  21.508867  11.643473  3.106187
  16238.897  16238.880  0.500  0.613213  21.528871  11.660203  3.114003
  16242.722  16242.680  0.500  0.612457  21.518213  11.663250  3.116757
  16246.548  16246.510  0.500  0.611590  21.497217  11.661970  3.118217
  16250.330  16250.350  0.500  0.611022  21.473211  11.655567  3.120143
  16254.218  16254.210  0.500  0.610282  21.419212  11.634865  3.116310
  16258.107  16258.090  0.500  0.609632  21.428593  11.647531  3.121998
  16262.034  16261.990  0.500  0.608913  21.413153  11.647510  3.124756
  16265.916  16265.910  0.500  0.608405  21.395991  11.644087  3.126232
  16269.857  16269.850  0.500  0.607588  21.369681  11.639275  3.126352
  16273.789  16273.810  0.500  0.606857  21.345822  11.634778  3.128531
  16277.804  16277.780  0.500  0.606186  21.317464  11.627122  3.129429
  16281.787  16281.780  0.500  0.605622  21.304341  11.626522  3.131018
  16285.794  16285.790  0.500  0.604899  21.281170  11.622278  3.132612
  16289.839  16289.830  0.500  0.604179  21.257613  11.617771  3.134092
  16293.908  16293.880  0.500  0.603345  21.233981  11.614537  3.135272
  16298.015  16297.950  0.500  0.602745  21.216016  11.611680  3.137167
  16302.042  16302.040  0.500  0.602125  21.193749  11.606691  3.138722
  16306.141  16306.150  0.500  0.601650  21.122592  11.573216  3.131757
  16310.324  16310.280  0.500  0.601171  21.152436  11.595120  3.140397
  16314.463  16314.430  0.500  0.600421  21.123789  11.588101  3.141292
  16318.603  16318.590  0.500  0.599827  21.105850  11.585144  3.143384
  16322.781  16322.780  0.500  0.599123  21.085761  11.582259  3.143940
  16327.019  16326.980  0.500  0.598695  21.063817  11.575168  3.144630
  16331.247  16331.210  0.500  0.597846  21.040406  11.572113  3.146774
  16335.455  16335.450  0.500  0.597196  21.015784  11.566087  3.147860
  16339.711  16339.710  0.500  0.596428  20.984409  11.557694  3.148128
  16344.017  16343.990  0.500  0.595690  20.964956  11.555506  3.149057
  16348.348  16348.290  0.500  0.595169  20.946732  11.551485  3.152262
  16352.646  16352.610  0.500  0.594223  20.925852  11.550887  3.153988
  16356.935  16356.950  0.500  0.593381  20.899604  11.546119  3.155220
  16361.344  16361.310  0.500  0.592745  20.879101  11.542125  3.157201
  16365.708  16365.690  0.500  0.592164  20.849163  11.532283  3.157155
  16370.062  16370.080  0.500  0.591004  20.807523  11.522606  3.156303
  16374.489  16374.500  0.500  0.590508  20.735388  11.488353  3.150484
  16378.943  16378.930  0.500  0.589993  20.774231  11.515804  3.160965
  16383.410  16383.380  0.500  0.589271  20.758244  11.515254  3.164647
  16387.857  16387.850  0.500  0.588481  20.732783  11.510214  3.164754
  16392.388  16392.340  0.500  0.587928  20.707761  11.502690  3.165623
  16396.874  16396.850  0.500  0.587165  20.684455  11.498505  3.167416
  16401.411  16401.380  0.500  0.586428  20.635217  11.479594  3.164416
  16405.938  16405.930  0.500  0.585815  20.631434  11.484530  3.168183
  16410.526  16410.500  0.500  0.584983  20.611949  11.483230  3.169848
  16415.129  16415.080  0.500  0.584314  20.586223  11.476577  3.171379
  16419.723  16419.690  0.500  0.583451  20.555891  11.469561  3.171951
  16424.319  16424.310  0.500  0.582908  20.538676  11.466179  3.174157
  16429.001  16428.960  0.500  0.582133  20.511556  11.459921  3.176466
  16433.661  16433.620  0.500  0.581039  20.483653  11.456852  3.178322
  16438.289  16438.300  0.500  0.580398  20.446407  11.443354  3.177176
  16443.014  16443.000  0.500  0.579154  20.384737  11.423039  3.173460
  16447.754  16447.720  0.500  0.578791  20.401608  11.436650  3.181714
  16452.461  16452.460  0.500  0.578007  20.385457  11.436555  3.183510
  16457.206  16457.210  0.500  0.577221  20.358059  11.430168  3.184821
  16462.014  16461.990  0.500  0.576772  20.325199  11.416839  3.185365
  16466.836  16466.790  0.500  0.575850  20.301430  11.414010  3.186680
  16471.590  16471.600  0.500  0.575236  20.273330  11.405205  3.187337
  16476.441  16476.430  0.500  0.574475  20.237311  11.393608  3.186824
  16481.331  16481.290  0.500  0.573643  20.197757  11.380809  3.186171
  16486.177  16486.160  0.500  0.572820  20.178523  11.379337  3.188121
  16491.061  16491.050  0.500  0.572282  20.144034  11.365998  3.189325
  16495.996  16495.960  0.500  0.571275  20.112076  11.359397  3.188983
  16500.921  16500.890  0.500  0.570456  20.074457  11.347440  3.187496
  16505.862  16505.830  0.500  0.569645  20.033148  11.333282  3.187660
  16510.829  16510.800  0.500  0.568955  20.024107  11.335980  3.191890
  16515.824  16515.790  0.500  0.568255  20.000818  11.330729  3.192942
  16520.845  16520.790  0.500  0.567345  19.978384  11.328319  3.196088
  16525.858  16525.820  0.500  0.566406  19.946515  11.320881  3.196351
  16530.897  16530.860  0.500  0.565646  19.917923  11.313239  3.197401
  16535.976  16535.920  0.500  0.564685  19.888509  11.307396  3.197904
  16541.069  16541.000  0.500  0.564025  19.866582  11.302393  3.200492
  16546.154  16546.100  0.500  0.563079  19.812635  11.282367  3.196512
  16551.266  16551.220  0.500  0.562219  19.804325  11.287341  3.201991
  16556.441  16556.360  0.500  0.561727  19.788347  11.283777  3.204183
  16561.584  16561.520  0.500  0.560818  19.754122  11.274509  3.205531
  16566.741  16566.700  0.500  0.559993  19.719684  11.264142  3.203875
  16571.914  16571.890  0.500  0.559285  19.698911  11.260247  3.206474
  16577.175  16577.110  0.500  0.558337  19.673428  11.256345  3.208460
  16582.354  16582.340  0.500  0.557506  19.645939  11.249962  3.210040
  16587.597  16587.590  0.500  0.556669  19.616237  11.242358  3.210759
  16592.904  16592.860  0.500  0.555880  19.587559  11.234785  3.211270
  16598.226  16598.150  0.500  0.555096  19.561103  11.228413  3.213088
  16603.504  16603.460  0.500  0.554264  19.533776  11.222057  3.214667
  16608.821  16608.790  0.500  0.553348  19.506388  11.216593  3.216053
  16614.202  16614.140  0.500  0.552617  19.468057  11.202731  3.215479
  16619.562  16619.510  0.500  0.551631  19.444174  11.200032  3.216941
  16624.925  16624.890  0.500  0.550745  19.404418  11.187040  3.216827
  16630.341  16630.300  0.500  0.549766  19.389240  11.189235  3.219703
  16635.797  16635.720  0.500  0.548911  19.349895  11.176083  3.219290
  16641.195  16641.170  0.500  0.548244  19.330726  11.172457  3.221957
  16646.670  16646.630  0.500  0.547460  19.303613  11.165538  3.223665
  16652.173  16652.110  0.500  0.546624  19.269169  11.154941  3.223574
  16657.679  16657.610  0.500  0.545731  19.234654  11.144911  3.222916
  16663.153  16663.130  0.500  0.544772  19.197882  11.134276  3.223687
  16668.740  16668.670  0.500  0.544241  19.166548  11.122003  3.223045
  16674.270  16674.220  0.500  0.543275  19.135764  11.114870  3.224961
  16679.852  16679.800  0.500  0.542478  19.102698  11.104511  3.226182
  16685.401  16685.400  0.500  0.541761  19.060244  11.087784  3.224217
  16691.076  16691.010  0.500  0.540827  19.020814  11.075187  3.223467
  16696.707  16696.650  0.500  0.539718  18.984789  11.066476  3.222679
  16702.328  16702.300  0.500  0.539235  18.911806  11.029256  3.217021
  16707.978  16707.970  0.500  0.538049  18.783408  10.967380  3.201719
  16713.718  16713.660  0.500  0.537126  18.088587  10.571433  3.086369
