# XDI/1.0 BlueSky/1.10.0 BMM/2023-1.0-py310-tiled
# Beamline.name: BMM (06BM) -- Beamline for Materials Measurement (NIST)
# Beamline.xray_source: NSLS-II three-pole wiggler
# Beamline.collimation: paraboloid mirror, 5 nm Rh on 30 nm Pt
# Beamline.focusing: not in use
# Beamline.harmonic_rejection: flat mirror, Si stripe, pitch = 7.0 mrad relative to beam
# Beamline.software: Bluesky 1.10.0, Ophyd 1.7.0, DataBroker 2.0.0b13, Python 3.10.8, 2023-1.0-py310-tiled
# Detector.I0: 10 cm N2
# Detector.I1: 25 cm N2
# Detector.I2: 25 cm N2
# Element.symbol: Fe
# Element.edge: K
# Element.reference: Fe
# Element.reference_material: Fe foil
# Facility.name: NSLS-II
# Facility.energy: 3.0
# Facility.current: 399.9
# Facility.mode: top-off
# Facility.GUP: 123456
# Facility.SAF: 301027
# Facility.cycle: 2023-2
# Mono.name: Si(111)
# Mono.d_spacing: 3.1351860
# Mono.encoder_resolution: 0.0000050 deg/ct
# Mono.angle_offset: 16.0754326 deg
# Mono.scan_mode: pseudo channel cut
# Mono.scan_type: step
# Mono.direction: forward in energy
# Sample.name: (Ca,Na)(Mg,Fe,Ti,Al)(Si,Al)2O6
# Sample.prep: PEG pellet
# Sample.x: 142.329 mm
# Sample.y: 114.126 mm
# Sample.SDD_position: 205.000 mm
# Scan.experimenters: Bruce Ravel
# Scan.edge_energy: 7112.0
# Scan.start_time: 2023-05-05T20:10:48
# Scan.end_time: 2023-05-05T20:19:04
# Scan.transient_id: 74611
# Scan.uid: 7f35bf42-07aa-467f-a489-86cedb7ed7b8
# Scan.plot_hint: ln(I0/It)  --  ln($5/$6)
# Column.1: energy eV
# Column.2: requested_energy eV
# Column.3: measurement_time seconds
# Column.4: xmu 
# Column.5: I0 nA
# Column.6: It nA
# Column.7: Ir nA
# ///////////
# courtesy Martin Stennett, University of Sheffield
# -----------
# energy  requested_energy  measurement_time  xmu  I0  It  Ir
  6912.001  6912.000  0.500  1.874472  154.313841  23.677302  4.443317
  6922.013  6922.000  0.500  1.864016  154.122923  23.896562  4.516860
  6932.015  6932.000  0.500  1.853521  154.059427  24.138724  4.595068
  6942.031  6942.000  0.500  1.843245  154.073255  24.390252  4.675309
  6951.991  6952.000  0.500  1.833502  154.038117  24.623417  4.754230
  6962.000  6962.000  0.500  1.823093  154.008598  24.876297  4.835312
  6972.012  6972.000  0.500  1.812687  154.006292  25.136146  4.918994
  6982.012  6982.000  0.500  1.802613  153.974731  25.385441  5.002192
  6992.016  6992.000  0.500  1.792476  153.938243  25.638009  5.086529
  7002.013  7002.000  0.500  1.782404  153.827923  25.878956  5.168959
  7012.008  7012.000  0.500  1.772702  153.816573  26.129330  5.252908
  7022.010  7022.000  0.500  1.762665  153.748157  26.381178  5.339266
  7032.010  7032.000  0.500  1.752797  153.671733  26.629547  5.423704
  7042.013  7042.000  0.500  1.743038  153.577188  26.874156  5.507203
  7052.011  7052.000  0.500  1.733555  153.506900  27.117795  5.590649
  7062.002  7062.000  0.500  1.723884  152.750279  27.246362  5.648581
  7072.007  7072.000  0.500  1.714344  153.276587  27.602326  5.749417
  7081.978  7082.000  0.500  1.705028  153.287524  27.862655  5.824785
  7083.978  7084.000  0.500  1.703224  153.047612  27.869283  5.828006
  7085.982  7086.000  0.500  1.701217  153.175083  27.948526  5.847873
  7087.985  7088.000  0.500  1.699444  153.184235  27.999803  5.858672
  7089.988  7090.000  0.500  1.697796  153.160962  28.041707  5.866152
  7091.991  7092.000  0.500  1.695861  153.141659  28.092500  5.875968
  7093.989  7094.000  0.500  1.694003  153.128256  28.142276  5.881235
  7096.216  7096.000  0.500  1.692418  153.076018  28.177293  5.881716
  7098.003  7098.000  0.500  1.690507  153.061950  28.228615  5.882453
  7099.996  7100.000  0.500  1.689000  153.042241  28.267523  5.874837
  7101.999  7102.000  0.500  1.687322  153.013524  28.309693  5.858416
  7102.288  7102.300  0.500  1.687120  153.010707  28.314896  5.855265
  7102.587  7102.600  0.500  1.686706  152.985237  28.321895  5.852827
  7102.884  7102.900  0.500  1.686464  152.991631  28.329946  5.849165
  7103.188  7103.200  0.500  1.686116  152.975719  28.336857  5.843738
  7103.488  7103.500  0.500  1.685807  152.956515  28.342063  5.839129
  7103.787  7103.800  0.500  1.685725  152.965290  28.346006  5.833680
  7104.087  7104.100  0.500  1.685362  152.951047  28.353657  5.826430
  7104.384  7104.400  0.500  1.685151  152.970074  28.363176  5.821446
  7104.683  7104.700  0.500  1.685317  153.205421  28.402097  5.820652
  7104.985  7105.000  0.500  1.684759  153.183494  28.413880  5.814378
  7105.289  7105.300  0.500  1.684748  153.213022  28.419662  5.806031
  7105.582  7105.600  0.500  1.684850  153.204466  28.415191  5.793507
  7105.890  7105.900  0.500  1.684230  153.201879  28.432319  5.784985
  7106.192  7106.200  0.500  1.684091  153.195261  28.435036  5.771410
  7106.492  7106.500  0.500  1.683789  153.197196  28.444005  5.758886
  7106.792  7106.800  0.500  1.683721  153.193676  28.445285  5.742744
  7107.089  7107.100  0.500  1.683683  153.195577  28.446715  5.724300
  7107.387  7107.400  0.500  1.683401  153.197993  28.455166  5.706712
  7107.689  7107.700  0.500  1.683161  153.180892  28.458835  5.682616
  7107.989  7108.000  0.500  1.683309  153.154542  28.449733  5.652671
  7108.287  7108.300  0.500  1.682946  153.161376  28.461328  5.622371
  7108.586  7108.600  0.500  1.682666  153.161666  28.469335  5.586285
  7108.891  7108.900  0.500  1.682395  153.154195  28.475671  5.542429
  7109.191  7109.200  0.500  1.682302  153.161011  28.479584  5.486826
  7109.493  7109.500  0.500  1.682130  153.142218  28.480985  5.415423
  7109.795  7109.800  0.500  1.682110  153.154533  28.483844  5.320154
  7110.095  7110.100  0.500  1.682194  153.135358  28.477902  5.189845
  7110.393  7110.400  0.500  1.682176  153.120127  28.475574  5.006908
  7110.699  7110.700  0.500  1.682315  153.104048  28.468623  4.743302
  7110.995  7111.000  0.500  1.682795  153.048208  28.444579  4.402839
  7111.297  7111.300  0.500  1.683121  153.030197  28.431978  3.995021
  7111.591  7111.600  0.500  1.683486  153.005149  28.416938  3.575611
  7111.889  7111.900  0.500  1.683963  152.979257  28.398591  3.189334
  7112.191  7112.200  0.500  1.684609  152.967202  28.377997  2.882520
  7112.494  7112.500  0.500  1.685475  152.947765  28.349835  2.651832
  7112.794  7112.800  0.500  1.686425  152.930902  28.319809  2.477598
  7113.092  7113.100  0.500  1.687679  152.908794  28.280219  2.338451
  7113.395  7113.400  0.500  1.688760  152.891447  28.246464  2.214943
  7113.697  7113.700  0.500  1.689406  152.865999  28.223526  2.105402
  7114.002  7114.000  0.500  1.689602  152.837977  28.212811  2.005919
  7114.300  7114.300  0.500  1.689486  152.836132  28.215748  1.921886
  7114.598  7114.600  0.500  1.689201  152.836968  28.223937  1.851265
  7114.897  7114.900  0.500  1.688544  152.822054  28.239753  1.797457
  7115.201  7115.200  0.500  1.687377  152.818181  28.272009  1.758750
  7115.500  7115.500  0.500  1.686077  152.811354  28.307507  1.731764
  7115.798  7115.800  0.500  1.685454  152.807357  28.324416  1.712631
  7116.092  7116.100  0.500  1.685157  152.795228  28.330584  1.696791
  7116.393  7116.400  0.500  1.685405  152.791612  28.322887  1.679342
  7116.693  7116.700  0.500  1.686206  152.782510  28.298504  1.655144
  7116.998  7117.000  0.500  1.687374  152.768756  28.262931  1.619143
  7117.297  7117.300  0.500  1.689044  152.747144  28.211776  1.566617
  7117.598  7117.600  0.500  1.691271  152.743733  28.148408  1.497201
  7117.894  7117.900  0.500  1.693682  152.725019  28.077191  1.412804
  7118.199  7118.200  0.500  1.696425  152.705463  27.996677  1.316708
  7118.502  7118.500  0.500  1.700133  152.721468  27.895993  1.217708
  7118.803  7118.800  0.500  1.704431  152.692100  27.771016  1.121568
  7119.097  7119.100  0.500  1.710066  152.689503  27.614481  1.031181
  7119.396  7119.400  0.500  1.716755  152.670621  27.426994  0.946644
  7119.699  7119.700  0.500  1.724652  152.654011  27.208296  0.866130
  7120.000  7120.000  0.500  1.733568  152.640945  26.964467  0.789562
  7120.301  7120.300  0.500  1.742837  152.634201  26.714532  0.717260
  7120.595  7120.600  0.500  1.752001  152.607946  26.466285  0.651010
  7120.896  7120.900  0.500  1.761020  152.603506  26.227881  0.590567
  7121.199  7121.200  0.500  1.769934  152.587069  25.992335  0.538721
  7121.505  7121.500  0.500  1.778617  152.578355  25.766149  0.494297
  7121.799  7121.800  0.500  1.787053  152.567465  25.547877  0.457542
  7122.102  7122.100  0.500  1.796257  152.557406  25.312131  0.425231
  7122.399  7122.400  0.500  1.805980  152.523003  25.061558  0.397293
  7122.702  7122.700  0.500  1.817313  152.524457  24.779379  0.372083
  7123.006  7123.000  0.500  1.829700  152.517072  24.473149  0.349734
  7123.301  7123.300  0.500  1.842805  152.506192  24.152798  0.329746
  7123.600  7123.600  0.500  1.855827  152.490555  23.837883  0.311986
  7123.903  7123.900  0.500  1.868327  152.485088  23.540919  0.296645
  7124.198  7124.200  0.500  1.880885  152.466120  23.244240  0.282171
  7124.499  7124.500  0.500  1.893207  152.451152  22.957338  0.269319
  7124.796  7124.800  0.500  1.905795  152.428127  22.666737  0.257291
  7125.093  7125.100  0.500  1.917921  152.411864  22.391146  0.246335
  7125.399  7125.400  0.500  1.929689  152.392140  22.126327  0.235522
  7125.700  7125.700  0.500  1.939742  152.374569  21.902473  0.226118
  7126.002  7126.000  0.500  1.947967  152.353404  21.720047  0.217377
  7126.301  7126.300  0.500  1.955097  152.329026  21.562277  0.209348
  7126.602  7126.600  0.500  1.961842  152.314711  21.415331  0.201213
  7126.904  7126.900  0.500  1.968873  152.280133  21.260461  0.192929
  7127.203  7127.200  0.500  1.976902  152.260345  21.087700  0.184226
  7127.505  7127.500  0.500  1.985909  152.241235  20.895986  0.175331
  7127.804  7127.800  0.500  1.995472  152.224399  20.694816  0.166446
  7128.097  7128.100  0.500  2.004969  152.184168  20.493791  0.157625
  7128.401  7128.400  0.500  2.014239  152.180043  20.304145  0.148935
  7128.698  7128.700  0.500  2.022956  152.156401  20.124796  0.140471
  7128.998  7129.000  0.500  2.030410  152.122087  19.970836  0.132565
  7129.300  7129.300  0.500  2.037233  152.089484  19.830788  0.124905
  7129.597  7129.600  0.500  2.042745  152.058322  19.717742  0.118384
  7129.903  7129.900  0.500  2.047228  152.023697  19.625078  0.112433
  7130.209  7130.200  0.500  2.050280  151.994830  19.561567  0.108173
  7130.505  7130.500  0.500  2.051940  151.990912  19.528604  0.104627
  7130.802  7130.800  0.500  2.052628  151.960489  19.511274  0.102367
  7131.104  7131.100  0.500  2.052575  151.919593  19.507067  0.101493
  7131.402  7131.400  0.500  2.052401  151.883510  19.505826  0.101902
  7131.708  7131.700  0.500  2.052625  151.885077  19.501651  0.103579
  7132.005  7132.000  0.500  2.053308  151.848436  19.483638  0.106332
  7132.301  7132.300  0.500  2.053209  151.845865  19.485233  0.110028
  7132.594  7132.600  0.500  2.052635  151.852259  19.497246  0.114142
  7132.903  7132.900  0.500  2.051121  151.836817  19.524801  0.119296
  7133.196  7133.200  0.500  2.048278  151.849731  19.582060  0.124949
  7133.496  7133.500  0.500  2.043825  151.843870  19.668690  0.131187
  7133.798  7133.800  0.500  2.038271  151.827361  19.776086  0.137545
  7134.096  7134.100  0.500  2.032214  151.807743  19.893655  0.143802
  7134.400  7134.400  0.500  2.025881  151.798319  20.018801  0.149856
  7134.705  7134.700  0.500  2.019891  151.804158  20.139848  0.155341
  7135.005  7135.000  0.500  2.014335  151.794091  20.250708  0.160566
  7135.303  7135.300  0.500  2.008952  151.797699  20.360502  0.165152
  7135.601  7135.600  0.500  2.003774  151.811514  20.468055  0.169256
  7135.901  7135.900  0.500  1.999159  151.757578  20.555442  0.172497
  7136.199  7136.200  0.500  1.995303  151.738688  20.632274  0.175030
  7136.499  7136.500  0.500  1.991356  151.775016  20.718830  0.177024
  7136.797  7136.800  0.500  1.987974  151.777683  20.789394  0.178193
  7136.998  7137.000  0.500  1.985917  151.767992  20.830872  0.178655
  7138.003  7137.990  0.500  1.975180  151.748233  21.053000  0.177570
  7139.007  7138.990  0.500  1.966858  151.730835  21.226504  0.171323
  7140.019  7140.010  0.500  1.961410  151.728160  21.342085  0.163939
  7141.083  7141.060  0.500  1.957695  151.737246  21.422797  0.158889
  7142.143  7142.120  0.500  1.953195  151.736782  21.519353  0.158430
  7143.188  7143.200  0.500  1.947963  151.694806  21.626255  0.161839
  7144.285  7144.300  0.500  1.942810  151.672461  21.734765  0.165196
  7145.409  7145.420  0.500  1.938246  151.647655  21.830619  0.165347
  7146.552  7146.560  0.500  1.932992  151.648373  21.945729  0.160320
  7147.705  7147.710  0.500  1.925254  151.663958  22.118468  0.151600
  7148.888  7148.890  0.500  1.915077  151.638516  22.340975  0.143025
  7150.080  7150.080  0.500  1.904415  151.649299  22.582054  0.137575
  7151.304  7151.300  0.500  1.894116  151.608990  22.809774  0.134977
  7152.532  7152.530  0.500  1.885877  151.612877  22.999070  0.133276
  7153.786  7153.780  0.500  1.878925  151.589650  23.155954  0.132809
  7155.052  7155.050  0.500  1.874015  151.555177  23.264653  0.134436
  7156.342  7156.340  0.500  1.870301  151.555726  23.351301  0.137367
  7157.654  7157.650  0.500  1.868048  151.529910  23.399965  0.139968
  7158.978  7158.980  0.500  1.866992  151.525582  23.424038  0.141023
  7160.332  7160.330  0.500  1.867415  151.493538  23.409182  0.141245
  7161.703  7161.700  0.500  1.869530  151.449698  23.352946  0.142038
  7163.080  7163.080  0.500  1.873299  151.418566  23.260331  0.143764
  7164.493  7164.490  0.500  1.878273  151.392390  23.140900  0.145924
  7165.911  7165.910  0.500  1.883735  151.329717  23.005326  0.147746
  7167.351  7167.350  0.500  1.888913  151.269744  22.877448  0.148575
  7168.814  7168.810  0.500  1.892927  151.877872  22.877413  0.150444
  7170.283  7170.290  0.500  1.896051  151.882148  22.806688  0.152572
  7171.793  7171.790  0.500  1.898751  151.865789  22.742741  0.156708
  7173.318  7173.310  0.500  1.900721  151.814769  22.690350  0.163101
  7174.856  7174.850  0.500  1.903274  151.778014  22.627036  0.171334
  7176.420  7176.410  0.500  1.905018  151.746707  22.582932  0.181193
  7177.985  7177.980  0.500  1.904910  151.709175  22.579791  0.190928
  7179.581  7179.580  0.500  1.904599  151.689194  22.583830  0.197558
  7181.197  7181.190  0.500  1.903380  151.653861  22.606129  0.199615
  7182.834  7182.830  0.500  1.901900  151.633684  22.636590  0.198114
  7184.487  7184.480  0.500  1.900454  151.605437  22.665129  0.194329
  7186.150  7186.150  0.500  1.898364  151.585352  22.709532  0.187050
  7187.846  7187.840  0.500  1.895844  151.553515  22.762049  0.178110
  7189.555  7189.550  0.500  1.892589  151.536151  22.833638  0.169148
  7191.290  7191.280  0.500  1.889208  149.987533  22.676852  0.158095
  7193.039  7193.030  0.500  1.885840  151.149407  22.929593  0.151090
  7194.796  7194.790  0.500  1.882405  151.326158  23.035410  0.148769
  7196.593  7196.580  0.500  1.879368  151.310117  23.103026  0.152222
  7198.385  7198.380  0.500  1.876308  151.262766  23.166566  0.160287
  7200.226  7200.210  0.500  1.873088  151.204270  23.232292  0.171911
  7202.057  7202.050  0.500  1.869509  151.140236  23.305738  0.185854
  7203.924  7203.910  0.500  1.865775  151.151858  23.394719  0.202184
  7205.799  7205.790  0.500  1.862249  151.112930  23.471294  0.217450
  7207.706  7207.690  0.500  1.859326  151.036279  23.528079  0.225454
  7209.609  7209.610  0.500  1.856775  150.965738  23.577150  0.218862
  7211.566  7211.550  0.500  1.853916  150.939146  23.640475  0.197625
  7213.518  7213.510  0.500  1.851578  150.885002  23.687320  0.168030
  7215.495  7215.480  0.500  1.849147  150.828502  23.736092  0.140590
  7217.487  7217.480  0.500  1.847061  150.766845  23.775915  0.120645
  7219.508  7219.490  0.500  1.845285  150.701982  23.807942  0.109815
  7221.529  7221.520  0.500  1.843404  150.647540  23.844162  0.107995
  7223.595  7223.580  0.500  1.841398  150.587175  23.882454  0.114745
  7225.662  7225.650  0.500  1.839430  150.473593  23.911464  0.129478
  7227.750  7227.740  0.500  1.837013  147.840198  23.549831  0.147256
  7229.860  7229.850  0.500  1.834651  150.650335  24.054212  0.174532
  7231.991  7231.980  0.500  1.832540  150.599451  24.096908  0.201797
  7234.125  7234.120  0.500  1.830717  150.546563  24.132410  0.227248
  7236.308  7236.290  0.500  1.828953  150.478866  24.164150  0.245683
  7238.491  7238.480  0.500  1.827581  150.445820  24.191989  0.254348
  7240.697  7240.680  0.500  1.825973  150.388619  24.221725  0.253578
  7242.917  7242.900  0.500  1.824824  150.356507  24.244390  0.244881
  7245.162  7245.150  0.500  1.823956  147.540097  23.810916  0.228407
  7247.421  7247.410  0.500  1.823210  150.068272  24.236999  0.222155
  7249.696  7249.690  0.500  1.822754  150.089306  24.251463  0.217779
  7251.998  7251.990  0.500  1.821297  149.987000  24.270245  0.220201
  7254.317  7254.310  0.500  1.819841  147.709744  23.936576  0.223482
  7256.664  7256.650  0.500  1.818026  150.097278  24.367667  0.232727
  7259.006  7259.000  0.500  1.815973  149.974546  24.397780  0.231180
  7261.394  7261.380  0.500  1.813461  149.516365  24.384437  0.224494
  7263.784  7263.770  0.500  1.809660  138.827970  22.727492  0.203286
  7266.201  7266.190  0.500  1.808517  149.651908  24.527502  0.214663
  7268.628  7268.620  0.500  1.805748  150.264546  24.696211  0.210258
  7271.085  7271.070  0.500  1.802879  150.179426  24.753124  0.200786
  7273.563  7273.550  0.500  1.799939  149.015286  24.633562  0.189346
  7276.049  7276.040  0.500  1.797470  150.200986  24.890942  0.185305
  7278.559  7278.550  0.500  1.794893  150.158368  24.948096  0.182394
  7281.087  7281.070  0.500  1.792147  150.129625  25.011900  0.177568
  7283.630  7283.620  0.500  1.789482  149.099967  24.906655  0.170188
  7286.200  7286.190  0.500  1.786888  149.745094  25.079388  0.165238
  7288.783  7288.770  0.500  1.783959  149.842409  25.169298  0.163581
  7291.389  7291.380  0.500  1.780480  149.787391  25.247740  0.169794
  7294.014  7294.000  0.500  1.777488  149.752091  25.317439  0.185093
  7296.666  7296.650  0.500  1.774721  149.700122  25.378771  0.204853
  7299.320  7299.310  0.500  1.771164  149.572977  25.447571  0.225327
  7302.006  7301.990  0.500  1.768204  147.849919  25.228999  0.240380
  7304.709  7304.690  0.500  1.765266  149.703164  25.620382  0.257710
  7307.424  7307.410  0.500  1.762461  149.608385  25.676099  0.267275
  7310.159  7310.150  0.500  1.759778  149.554525  25.735806  0.271449
  7312.910  7312.900  0.500  1.757284  149.472433  25.785898  0.271929
  7315.694  7315.680  0.500  1.755187  149.409474  25.829138  0.272255
  7318.481  7318.470  0.500  1.752804  149.376767  25.885094  0.274280
  7321.304  7321.290  0.500  1.750306  149.281092  25.933226  0.275749
  7324.137  7324.120  0.500  1.747949  149.241046  25.987464  0.277381
  7326.985  7326.970  0.500  1.745677  149.186492  26.037041  0.278333
  7329.859  7329.850  0.500  1.742965  149.084706  26.089924  0.280168
  7332.755  7332.740  0.500  1.740188  149.014316  26.150147  0.286167
  7335.663  7335.650  0.500  1.737242  148.955276  26.216887  0.293756
  7338.589  7338.570  0.500  1.733936  147.748074  26.090536  0.295837
  7341.529  7341.520  0.500  1.731496  148.762632  26.333873  0.295832
  7344.500  7344.490  0.500  1.728645  148.738999  26.404851  0.285892
  7347.479  7347.470  0.500  1.725980  148.674313  26.463810  0.271368
  7350.496  7350.480  0.500  1.723040  148.639705  26.535545  0.257511
  7353.512  7353.500  0.500  1.720372  148.579184  26.595612  0.245943
  7356.564  7356.550  0.500  1.717230  148.474092  26.660438  0.236076
  7359.623  7359.610  0.500  1.714068  148.404341  26.732289  0.228118
  7362.700  7362.690  0.500  1.711036  148.322940  26.798757  0.222444
  7365.799  7365.790  0.500  1.708203  148.244566  26.860601  0.220395
  7368.921  7368.910  0.500  1.705273  148.163185  26.924635  0.223745
  7372.063  7372.050  0.500  1.702522  148.104187  26.988045  0.233720
  7375.216  7375.200  0.500  1.699702  148.028072  27.050357  0.251682
  7378.395  7378.380  0.500  1.696926  147.942454  27.109858  0.278357
  7381.586  7381.570  0.500  1.694083  147.875857  27.174788  0.309154
  7384.796  7384.790  0.500  1.691204  147.818087  27.242501  0.333269
  7388.033  7388.020  0.500  1.688221  147.740674  27.309589  0.343442
  7391.282  7391.270  0.500  1.685147  147.667181  27.380024  0.342517
  7394.559  7394.550  0.500  1.681982  147.591226  27.452699  0.337437
  7397.846  7397.840  0.500  1.678830  147.490031  27.520473  0.333904
  7401.162  7401.150  0.500  1.675683  147.397358  27.589870  0.334586
  7404.481  7404.470  0.500  1.672137  147.305984  27.670723  0.336630
  7407.829  7407.820  0.500  1.668898  147.243105  27.748643  0.337528
  7411.198  7411.190  0.500  1.665795  147.164744  27.820066  0.337654
  7414.583  7414.570  0.500  1.662661  147.072341  27.889879  0.337892
  7417.989  7417.980  0.500  1.659614  146.996371  27.960527  0.340323
  7421.404  7421.400  0.500  1.656211  146.872374  28.032163  0.345321
  7424.863  7424.850  0.500  1.653062  146.753248  28.097782  0.352927
  7428.319  7428.310  0.500  1.650055  146.656422  28.163804  0.359832
  7431.802  7431.790  0.500  1.647009  146.573381  28.233725  0.360795
  7435.296  7435.290  0.500  1.643828  146.464654  28.302662  0.360050
  7438.823  7438.810  0.500  1.640761  146.345021  28.366416  0.355171
  7442.361  7442.350  0.500  1.637656  146.211942  28.428753  0.346395
  7445.907  7445.900  0.500  1.634467  142.327754  27.761931  0.328092
  7449.486  7449.480  0.500  1.631448  146.155976  28.594857  0.330714
  7453.086  7453.080  0.500  1.628325  144.868290  28.431570  0.326394
  7456.702  7456.690  0.500  1.625353  145.920679  28.723347  0.330406
  7460.333  7460.320  0.500  1.622239  145.340763  28.698424  0.332345
  7463.992  7463.980  0.500  1.618787  145.689057  28.866661  0.339337
  7467.660  7467.650  0.500  1.615676  141.743983  28.172514  0.339918
  7471.354  7471.340  0.500  1.612357  145.670936  29.049264  0.362842
  7475.063  7475.050  0.500  1.608998  145.533611  29.119520  0.374915
  7478.784  7478.780  0.500  1.605824  145.394891  29.184259  0.384780
  7482.531  7482.520  0.500  1.602614  145.285262  29.255999  0.393969
  7486.303  7486.290  0.500  1.599434  145.138633  29.319584  0.405779
  7490.088  7490.080  0.500  1.595760  145.003033  29.399986  0.418256
  7493.888  7493.880  0.500  1.592319  144.883449  29.477023  0.427787
  7497.727  7497.710  0.500  1.588899  144.795253  29.559978  0.431951
  7501.565  7501.550  0.500  1.585573  144.695271  29.637988  0.431428
  7505.429  7505.410  0.500  1.582205  144.537791  29.705600  0.429675
  7509.321  7509.290  0.500  1.578959  144.417009  29.777302  0.430345
  7513.213  7513.190  0.500  1.575648  144.310817  29.854067  0.433625
  7517.130  7517.110  0.500  1.572254  144.188830  29.930257  0.437565
  7521.071  7521.050  0.500  1.569071  144.045404  29.995805  0.441493
  7525.021  7525.010  0.500  1.565947  143.908055  30.060966  0.443740
  7528.980  7528.980  0.500  1.562533  143.773612  30.135601  0.444491
  7532.999  7532.980  0.500  1.559089  143.633922  30.210167  0.444922
  7537.006  7536.990  0.500  1.556047  143.504594  30.274935  0.447789
  7541.048  7541.030  0.500  1.552400  143.361337  30.355203  0.452454
  7545.102  7545.080  0.500  1.548863  143.218594  30.432452  0.456672
  7549.166  7549.150  0.500  1.545660  143.080321  30.500587  0.460224
  7553.275  7553.240  0.500  1.542248  142.943591  30.575606  0.460993
  7557.380  7557.350  0.500  1.538684  142.796795  30.653242  0.458597
  7561.499  7561.480  0.500  1.535016  142.643993  30.732975  0.456501
  7565.622  7565.630  0.500  1.531472  142.637115  30.840605  0.457122
  7569.818  7569.790  0.500  1.528053  142.932667  31.010324  0.463177
  7573.973  7573.980  0.500  1.524511  142.804014  31.092346  0.472157
  7578.182  7578.180  0.500  1.521164  142.654580  31.163946  0.484429
  7582.410  7582.410  0.500  1.517759  142.498077  31.235942  0.496855
  7586.672  7586.650  0.500  1.514115  142.329642  31.312912  0.507074
  7590.902  7590.910  0.500  1.510615  142.130863  31.378835  0.514329
  7595.212  7595.190  0.500  1.507044  141.884367  31.436450  0.518682
  7599.514  7599.490  0.500  1.503538  141.640074  31.492564  0.521209
  7603.816  7603.810  0.500  1.500116  141.080460  31.475644  0.523394
  7608.157  7608.150  0.500  1.496527  140.860169  31.539511  0.529677
  7612.496  7612.510  0.500  1.493137  140.653538  31.600163  0.537510
  7616.905  7616.890  0.500  1.489622  140.635624  31.707396  0.544607
  7621.302  7621.280  0.500  1.486043  140.708557  31.837602  0.547827
  7625.721  7625.700  0.500  1.482566  140.727394  31.952777  0.550124
  7630.153  7630.130  0.500  1.479235  140.644568  32.040512  0.554092
  7634.558  7634.580  0.500  1.475462  140.485275  32.125199  0.560777
  7639.041  7639.050  0.500  1.471872  140.316185  32.201925  0.569692
  7643.556  7643.540  0.500  1.468230  140.127405  32.275935  0.578604
  7648.067  7648.050  0.500  1.464616  139.955131  32.352969  0.586428
  7652.566  7652.580  0.500  1.461082  139.763697  32.423098  0.592218
  7657.126  7657.130  0.500  1.457343  139.603316  32.507223  0.597118
  7661.683  7661.700  0.500  1.453709  139.427610  32.584497  0.600431
  7666.267  7666.280  0.500  1.450078  139.263647  32.664550  0.602288
  7670.888  7670.890  0.500  1.446550  139.085168  32.737993  0.603122
  7675.528  7675.510  0.500  1.442817  138.898427  32.816321  0.604506
  7680.156  7680.160  0.500  1.439209  138.685972  32.884553  0.606027
  7684.841  7684.820  0.500  1.435657  138.391420  32.931493  0.609102
  7689.488  7689.500  0.500  1.431873  138.553161  33.094958  0.617107
  7694.189  7694.200  0.500  1.428422  138.247336  33.136058  0.623951
  7698.906  7698.920  0.500  1.424682  138.007293  33.202490  0.632234
  7703.657  7703.660  0.500  1.421082  137.758643  33.262198  0.639350
  7708.409  7708.410  0.500  1.417363  137.690893  33.369700  0.647628
  7713.172  7713.190  0.500  1.413632  137.450377  33.435918  0.656469
  7717.967  7717.990  0.500  1.410189  137.199046  33.489898  0.664638
  7722.781  7722.800  0.500  1.406603  137.061589  33.576533  0.673141
  7727.608  7727.630  0.500  1.402950  136.855367  33.648697  0.679579
  7732.513  7732.490  0.500  1.399183  136.621101  33.717894  0.685081
  7737.394  7737.360  0.500  1.395525  136.330998  33.769585  0.690328
  7742.241  7742.250  0.500  1.391733  136.393386  33.913386  0.697884
  7747.145  7747.160  0.500  1.388195  136.116169  33.964437  0.704017
  7752.078  7752.090  0.500  1.384401  135.921789  34.044832  0.709783
  7757.023  7757.030  0.500  1.380640  135.720445  34.122501  0.716450
  7761.987  7762.000  0.500  1.376826  135.459708  34.187085  0.723903
  7766.987  7766.990  0.500  1.373079  135.271644  34.267785  0.732635
  7771.985  7771.990  0.500  1.369405  135.042544  34.335668  0.741402
  7777.003  7777.020  0.500  1.365999  134.833882  34.399588  0.749285
  7782.079  7782.060  0.500  1.362104  134.616560  34.478181  0.756560
  7787.090  7787.120  0.500  1.358149  134.425746  34.565746  0.764504
  7792.224  7792.200  0.500  1.354536  134.245918  34.644456  0.771078
  7797.282  7797.300  0.500  1.350691  134.037553  34.723933  0.777474
  7802.406  7802.420  0.500  1.346864  133.832028  34.803630  0.783236
  7807.540  7807.560  0.500  1.343303  133.621871  34.872943  0.788155
  7812.705  7812.720  0.500  1.339695  133.382001  34.936161  0.793559
  7817.879  7817.900  0.500  1.336096  133.165852  35.005307  0.799946
  7823.099  7823.090  0.500  1.332381  132.966355  35.082940  0.806410
  7828.309  7828.310  0.500  1.328544  132.769391  35.165650  0.813383
  7833.515  7833.540  0.500  1.324753  132.541828  35.238711  0.820371
  7838.786  7838.790  0.500  1.320790  132.039556  35.244570  0.825385
  7844.054  7844.060  0.500  1.316986  132.129688  35.403057  0.834717
  7849.350  7849.350  0.500  1.313316  131.835330  35.454043  0.842056
  7854.648  7854.660  0.500  1.309722  130.772152  35.294777  0.844687
  7859.975  7859.990  0.500  1.305835  131.428772  35.610109  0.859127
  7865.328  7865.340  0.500  1.301799  131.211785  35.695119  0.868724
  7870.688  7870.710  0.500  1.297842  130.970115  35.770643  0.878045
  7876.069  7876.090  0.500  1.294081  130.742622  35.843046  0.887324
  7881.468  7881.500  0.500  1.290727  130.497816  35.896131  0.895992
  7886.899  7886.920  0.500  1.286636  130.271506  35.980793  0.905876
  7892.349  7892.370  0.500  1.282798  130.055965  36.059378  0.914743
  7897.803  7897.830  0.500  1.279243  129.734931  36.098480  0.922701
  7903.289  7903.310  0.500  1.275238  129.555235  36.193136  0.932751
  7908.786  7908.810  0.500  1.271429  129.327176  36.267290  0.941507
  7914.307  7914.330  0.500  1.267599  129.050743  36.328648  0.949490
  7919.854  7919.870  0.500  1.263658  128.778208  36.395073  0.958682
  7925.397  7925.420  0.500  1.259864  128.534229  36.464211  0.967488
  7930.979  7931.000  0.500  1.256136  128.188778  36.502029  0.975747
  7936.583  7936.600  0.500  1.252346  127.814773  36.533741  0.982089
  7942.187  7942.210  0.500  1.248355  127.834049  36.685365  0.991282
  7947.837  7947.850  0.500  1.244514  127.516079  36.734934  0.998755
  7953.482  7953.500  0.500  1.240659  127.136292  36.766983  1.005661
  7959.149  7959.170  0.500  1.236860  126.848606  36.823419  1.013718
  7964.843  7964.860  0.500  1.233073  126.579509  36.884743  1.022612
