# XDI/1.0 BlueSky/1.10.0 BMM/2023-1.0-py310-tiled
# Beamline.name: BMM (06BM) -- Beamline for Materials Measurement (NIST)
# Beamline.xray_source: NSLS-II three-pole wiggler
# Beamline.collimation: paraboloid mirror, 5 nm Rh on 30 nm Pt
# Beamline.focusing: not in use
# Beamline.harmonic_rejection: flat mirror, Si stripe, pitch = 7.0 mrad relative to beam
# Beamline.software: Bluesky 1.10.0, Ophyd 1.7.0, DataBroker 2.0.0b13, Python 3.10.8, 2023-1.0-py310-tiled
# Detector.I0: 10 cm N2
# Detector.I1: 25 cm N2
# Detector.I2: 25 cm N2
# Element.symbol: Fe
# Element.edge: K
# Element.reference: Fe
# Element.reference_material: Fe foil
# Facility.name: NSLS-II
# Facility.energy: 3.0
# Facility.current: 400.1
# Facility.mode: top-off
# Facility.GUP: 123456
# Facility.SAF: 301027
# Facility.cycle: 2023-2
# Mono.name: Si(111)
# Mono.d_spacing: 3.1351860
# Mono.encoder_resolution: 0.0000050 deg/ct
# Mono.angle_offset: 16.0754326 deg
# Mono.scan_mode: pseudo channel cut
# Mono.scan_type: step
# Mono.direction: forward in energy
# Sample.name: Ca2FeAl2BSi4O15OH
# Sample.prep: PEG pellet
# Sample.x: 142.329 mm
# Sample.y: 114.126 mm
# Sample.SDD_position: 205.000 mm
# Scan.experimenters: Bruce Ravel
# Scan.edge_energy: 7112.0
# Scan.start_time: 2023-05-05T20:01:53
# Scan.end_time: 2023-05-05T20:10:03
# Scan.transient_id: 74606
# Scan.uid: 7e2abe51-0ab5-4919-80b5-979d99742378
# Scan.plot_hint: ln(I0/It)  --  ln($5/$6)
# Column.1: energy eV
# Column.2: requested_energy eV
# Column.3: measurement_time seconds
# Column.4: xmu 
# Column.5: I0 nA
# Column.6: It nA
# Column.7: Ir nA
# ///////////
# courtesy Martin Stennett, University of Sheffield
# -----------
# energy  requested_energy  measurement_time  xmu  I0  It  Ir
  6912.005  6912.000  0.500  1.608787  154.362584  30.892615  5.799903
  6922.009  6922.000  0.500  1.599937  154.194709  31.133336  5.886199
  6932.017  6932.000  0.500  1.591359  154.148135  31.392052  5.977111
  6942.033  6942.000  0.500  1.582492  154.180974  31.678393  6.074116
  6951.997  6952.000  0.500  1.573817  154.151318  31.948271  6.168275
  6962.002  6962.000  0.500  1.565193  154.143369  32.223321  6.264158
  6972.003  6972.000  0.500  1.556612  154.118461  32.495769  6.361653
  6982.019  6982.000  0.500  1.548166  154.075416  32.762231  6.456866
  6992.012  6992.000  0.500  1.539627  154.055917  33.039003  6.556591
  7002.013  7002.000  0.500  1.531281  153.989240  33.301471  6.653356
  7012.008  7012.000  0.500  1.523366  153.942099  33.555816  6.747684
  7022.014  7022.000  0.500  1.514799  153.877255  33.830275  6.846931
  7032.008  7032.000  0.500  1.506337  153.820303  34.105150  6.945773
  7042.011  7042.000  0.500  1.498374  153.726142  34.356767  7.041981
  7052.007  7052.000  0.500  1.490223  153.623314  34.614758  7.136183
  7062.006  7062.000  0.500  1.482182  152.895241  34.728844  7.199916
  7072.009  7072.000  0.500  1.474175  153.384931  35.120187  7.318528
  7081.984  7082.000  0.500  1.466188  153.331883  35.389540  7.399215
  7083.989  7084.000  0.500  1.464699  153.083904  35.384962  7.400994
  7085.982  7086.000  0.500  1.463016  153.224018  35.477003  7.423645
  7087.990  7088.000  0.500  1.461348  153.230270  35.537673  7.437346
  7089.992  7090.000  0.500  1.459690  153.202474  35.590193  7.448038
  7091.995  7092.000  0.500  1.458211  153.180252  35.637714  7.454467
  7093.991  7094.000  0.500  1.456731  153.164423  35.686805  7.459853
  7095.988  7096.000  0.500  1.455381  153.153292  35.732422  7.461889
  7097.982  7098.000  0.500  1.453858  153.134875  35.782562  7.459428
  7099.996  7100.000  0.500  1.452306  153.085539  35.826620  7.447460
  7102.003  7102.000  0.500  1.450707  153.059082  35.877724  7.426945
  7102.292  7102.300  0.500  1.450486  153.048977  35.883306  7.421956
  7102.585  7102.600  0.500  1.450162  153.038031  35.892364  7.417413
  7102.887  7102.900  0.500  1.450049  153.040543  35.897002  7.412012
  7103.195  7103.200  0.500  1.449877  153.033629  35.901571  7.405512
  7103.485  7103.500  0.500  1.449668  153.034085  35.909175  7.398935
  7103.785  7103.800  0.500  1.449590  153.041857  35.913797  7.391743
  7104.091  7104.100  0.500  1.449003  153.023995  35.930679  7.386306
  7104.386  7104.400  0.500  1.448993  153.013468  35.928562  7.376339
  7104.690  7104.700  0.500  1.448924  152.993828  35.926430  7.365260
  7104.992  7105.000  0.500  1.448385  152.971537  35.940588  7.354897
  7105.289  7105.300  0.500  1.448633  152.957417  35.928338  7.340965
  7105.584  7105.600  0.500  1.448313  152.976821  35.944404  7.329768
  7105.890  7105.900  0.500  1.447946  152.971972  35.956467  7.316070
  7106.190  7106.200  0.500  1.447759  152.967529  35.962120  7.301241
  7106.488  7106.500  0.500  1.447474  152.990514  35.977786  7.285254
  7106.792  7106.800  0.500  1.447232  152.966590  35.980871  7.265679
  7107.089  7107.100  0.500  1.447159  152.953290  35.980375  7.242336
  7107.385  7107.400  0.500  1.446922  152.929117  35.983214  7.217305
  7107.689  7107.700  0.500  1.446709  152.914518  35.987434  7.187069
  7107.989  7108.000  0.500  1.446493  152.904120  35.992780  7.152166
  7108.289  7108.300  0.500  1.446314  152.893580  35.996748  7.112546
  7108.589  7108.600  0.500  1.446226  152.901376  36.001744  7.064201
  7108.886  7108.900  0.500  1.446187  152.900366  36.002896  7.009799
  7109.188  7109.200  0.500  1.445998  152.897230  36.008957  6.939413
  7109.499  7109.500  0.500  1.445810  152.880393  36.011783  6.846780
  7109.793  7109.800  0.500  1.445790  152.859509  36.007576  6.727703
  7110.095  7110.100  0.500  1.445957  152.827804  35.994109  6.560746
  7110.397  7110.400  0.500  1.445964  152.798897  35.987033  6.324392
  7110.697  7110.700  0.500  1.446002  152.780713  35.981388  5.998059
  7110.995  7111.000  0.500  1.446481  152.768090  35.961195  5.565708
  7111.297  7111.300  0.500  1.447137  152.757443  35.935109  5.048200
  7111.591  7111.600  0.500  1.447696  152.722487  35.906808  4.520487
  7111.891  7111.900  0.500  1.448150  152.686138  35.881950  4.028344
  7112.196  7112.200  0.500  1.448331  152.669324  35.871518  3.640098
  7112.492  7112.500  0.500  1.448169  152.629629  35.867996  3.353042
  7112.792  7112.800  0.500  1.447848  152.618944  35.876978  3.139006
  7113.094  7113.100  0.500  1.447407  152.602289  35.888888  2.965532
  7113.397  7113.400  0.500  1.446995  152.586177  35.899916  2.814773
  7113.701  7113.700  0.500  1.446823  152.564980  35.901073  2.676142
  7114.000  7114.000  0.500  1.446471  152.541428  35.908200  2.552366
  7114.300  7114.300  0.500  1.446275  152.535724  35.913864  2.444352
  7114.598  7114.600  0.500  1.445709  152.536164  35.934326  2.356100
  7114.899  7114.900  0.500  1.445444  152.506737  35.936892  2.286074
  7115.201  7115.200  0.500  1.445186  152.504707  35.945703  2.234379
  7115.500  7115.500  0.500  1.445353  152.502678  35.939219  2.198639
  7115.805  7115.800  0.500  1.445536  152.502861  35.932702  2.171045
  7116.092  7116.100  0.500  1.445461  152.489356  35.932181  2.150178
  7116.397  7116.400  0.500  1.445850  152.476912  35.915277  2.128388
  7116.693  7116.700  0.500  1.446563  152.467168  35.887385  2.097590
  7116.998  7117.000  0.500  1.447346  152.471070  35.860241  2.051834
  7117.295  7117.300  0.500  1.448656  152.456946  35.809969  1.987230
  7117.598  7117.600  0.500  1.450296  152.510382  35.763801  1.900938
  7117.898  7117.900  0.500  1.452886  152.954230  35.775135  1.798229
  7118.199  7118.200  0.500  1.456536  152.939822  35.641415  1.675550
  7118.506  7118.500  0.500  1.461203  152.931902  35.473618  1.546345
  7118.801  7118.800  0.500  1.467494  152.890313  35.241569  1.422237
  7119.099  7119.100  0.500  1.475506  152.884492  34.959032  1.304722
  7119.398  7119.400  0.500  1.484636  152.874800  34.639094  1.194633
  7119.701  7119.700  0.500  1.494041  152.856231  34.310677  1.092130
  7120.000  7120.000  0.500  1.503863  152.856068  33.975314  0.994204
  7120.296  7120.300  0.500  1.513203  152.836407  33.655111  0.902670
  7120.595  7120.600  0.500  1.521565  152.822260  33.371781  0.819994
  7120.894  7120.900  0.500  1.528247  152.820476  33.149157  0.745309
  7121.201  7121.200  0.500  1.533483  152.801175  32.971858  0.681925
  7121.498  7121.500  0.500  1.537365  152.779334  32.839407  0.628900
  7121.801  7121.800  0.500  1.540759  152.762867  32.724614  0.584962
  7122.100  7122.100  0.500  1.544065  152.737515  32.611209  0.546735
  7122.399  7122.400  0.500  1.547275  152.718176  32.502563  0.514311
  7122.702  7122.700  0.500  1.550805  152.685300  32.381072  0.485336
  7123.006  7123.000  0.500  1.554902  152.672926  32.246065  0.459411
  7123.303  7123.300  0.500  1.559051  152.659631  32.109748  0.437150
  7123.600  7123.600  0.500  1.563586  152.666692  31.965959  0.417791
  7123.899  7123.900  0.500  1.568606  152.656534  31.803771  0.399978
  7124.204  7124.200  0.500  1.573712  152.644855  31.639357  0.383535
  7124.497  7124.500  0.500  1.578707  152.596456  31.471734  0.368375
  7124.800  7124.800  0.500  1.583178  152.579349  31.327831  0.354794
  7125.093  7125.100  0.500  1.586908  152.541234  31.203404  0.342089
  7125.394  7125.400  0.500  1.589744  152.527166  31.112157  0.330464
  7125.702  7125.700  0.500  1.591907  152.495531  31.038495  0.319581
  7126.002  7126.000  0.500  1.593207  152.472451  30.993485  0.309792
  7126.303  7126.300  0.500  1.593751  152.460084  30.974110  0.299928
  7126.602  7126.600  0.500  1.593193  152.449594  30.989260  0.290406
  7126.900  7126.900  0.500  1.591853  152.431953  31.027233  0.280428
  7127.205  7127.200  0.500  1.589484  152.393380  31.092961  0.270883
  7127.503  7127.500  0.500  1.586607  152.356430  31.174984  0.260810
  7127.800  7127.800  0.500  1.582920  152.335235  31.285783  0.250816
  7128.097  7128.100  0.500  1.580141  152.302897  31.366170  0.240598
  7128.397  7128.400  0.500  1.578062  152.292795  31.429369  0.229826
  7128.701  7128.700  0.500  1.576855  152.280499  31.464781  0.218857
  7128.996  7129.000  0.500  1.576758  152.247283  31.460992  0.208106
  7129.297  7129.300  0.500  1.577160  152.235126  31.445834  0.197340
  7129.595  7129.600  0.500  1.577600  152.199978  31.424742  0.187742
  7129.901  7129.900  0.500  1.578040  152.154076  31.401432  0.179456
  7130.205  7130.200  0.500  1.578185  152.113491  31.388517  0.172544
  7130.502  7130.500  0.500  1.577392  152.082406  31.406988  0.167805
  7130.804  7130.800  0.500  1.575852  152.029637  31.444469  0.164669
  7131.102  7131.100  0.500  1.573639  152.004046  31.508839  0.163404
  7131.402  7131.400  0.500  1.570967  151.999374  31.592162  0.164666
  7131.706  7131.700  0.500  1.567864  151.968472  31.683905  0.167625
  7132.005  7132.000  0.500  1.564720  151.973532  31.784742  0.172901
  7132.299  7132.300  0.500  1.561663  151.959612  31.879124  0.179265
  7132.601  7132.600  0.500  1.558483  151.961493  31.981058  0.186753
  7132.896  7132.900  0.500  1.555323  151.960599  32.082116  0.195483
  7133.198  7133.200  0.500  1.552188  151.942735  32.179037  0.205038
  7133.501  7133.500  0.500  1.549042  151.953134  32.282666  0.214705
  7133.803  7133.800  0.500  1.546464  151.921935  32.359332  0.224414
  7134.100  7134.100  0.500  1.544240  151.917005  32.430346  0.233705
  7134.400  7134.400  0.500  1.542331  151.923546  32.493707  0.242513
  7134.705  7134.700  0.500  1.540988  151.924088  32.537496  0.250507
  7135.005  7135.000  0.500  1.539731  151.928275  32.579315  0.257604
  7135.303  7135.300  0.500  1.539293  151.914457  32.590613  0.263622
  7135.603  7135.600  0.500  1.538493  151.905342  32.614758  0.268713
  7135.901  7135.900  0.500  1.537504  151.893170  32.644406  0.272888
  7136.205  7136.200  0.500  1.536972  151.891553  32.661438  0.276320
  7136.499  7136.500  0.500  1.536291  151.872724  32.679627  0.278229
  7136.797  7136.800  0.500  1.536012  151.857747  32.685514  0.279260
  7136.996  7137.000  0.500  1.535828  151.865049  32.693100  0.279462
  7138.000  7137.990  0.500  1.534795  151.860982  32.726006  0.275071
  7139.005  7138.990  0.500  1.534254  151.846098  32.740533  0.263393
  7140.026  7140.010  0.500  1.534025  151.855925  32.750137  0.250721
  7141.081  7141.060  0.500  1.534438  151.848314  32.734990  0.242289
  7142.108  7142.120  0.500  1.534248  151.821759  32.735486  0.240732
  7143.186  7143.200  0.500  1.532781  151.808907  32.780744  0.244430
  7144.287  7144.300  0.500  1.529997  151.811121  32.872611  0.249326
  7145.420  7145.420  0.500  1.526048  151.801465  33.000578  0.249317
  7146.561  7146.560  0.500  1.522124  151.784674  33.126675  0.241387
  7147.705  7147.710  0.500  1.518160  151.772809  33.255648  0.227477
  7148.897  7148.890  0.500  1.515152  151.740466  33.348721  0.212926
  7150.089  7150.080  0.500  1.513752  151.738372  33.394972  0.202974
  7151.301  7151.300  0.500  1.513349  151.744578  33.409816  0.196975
  7152.529  7152.530  0.500  1.513665  151.718291  33.393486  0.192927
  7153.784  7153.780  0.500  1.514118  151.724258  33.379656  0.190755
  7155.056  7155.050  0.500  1.514446  151.689682  33.361121  0.192040
  7156.337  7156.340  0.500  1.514115  151.694009  33.373107  0.195867
  7157.652  7157.650  0.500  1.513490  151.682922  33.391521  0.199230
  7158.982  7158.980  0.500  1.512789  151.654077  33.408601  0.200494
  7160.330  7160.330  0.500  1.511931  151.626027  33.431072  0.200879
  7161.698  7161.700  0.500  1.510937  151.587072  33.455722  0.202791
  7163.080  7163.080  0.500  1.510334  151.548972  33.467507  0.206051
  7164.486  7164.490  0.500  1.509629  151.492904  33.478717  0.210547
  7165.915  7165.910  0.500  1.509120  151.446032  33.485395  0.214199
  7167.351  7167.350  0.500  1.508524  151.405121  33.496309  0.217177
  7168.818  7168.810  0.500  1.508547  151.376017  33.489087  0.219711
  7170.294  7170.290  0.500  1.508258  151.352467  33.493563  0.223579
  7171.793  7171.790  0.500  1.508636  151.349419  33.480225  0.230163
  7173.321  7173.310  0.500  1.508832  151.321128  33.467408  0.240180
  7174.849  7174.850  0.500  1.509030  151.279691  33.451640  0.252792
  7176.422  7176.410  0.500  1.509175  151.255692  33.441482  0.267882
  7177.985  7177.980  0.500  1.508899  151.216742  33.442074  0.282214
  7179.587  7179.580  0.500  1.508627  151.185905  33.444350  0.291880
  7181.202  7181.190  0.500  1.508202  151.146076  33.449771  0.294709
  7182.839  7182.830  0.500  1.507952  151.117313  33.451773  0.291947
  7184.485  7184.480  0.500  1.507393  151.097535  33.466096  0.285991
  7186.154  7186.150  0.500  1.506473  151.057168  33.487944  0.275428
  7187.846  7187.840  0.500  1.504548  151.008362  33.541640  0.261685
  7189.566  7189.550  0.500  1.502068  151.024775  33.628562  0.248532
  7191.294  7191.280  0.500  1.499071  149.464218  33.380965  0.231945
  7193.041  7193.030  0.500  1.495729  150.635712  33.755234  0.222070
  7194.803  7194.790  0.500  1.492284  150.824502  33.914163  0.218311
  7196.591  7196.580  0.500  1.489202  150.812711  34.016212  0.223547
  7198.385  7198.380  0.500  1.486893  150.767754  34.084662  0.235340
  7200.217  7200.210  0.500  1.485219  150.731529  34.133584  0.251744
  7202.057  7202.050  0.500  1.483650  150.685821  34.176805  0.271806
  7203.920  7203.910  0.500  1.481971  150.657905  34.227887  0.294639
  7205.806  7205.790  0.500  1.480185  150.615663  34.279459  0.316872
  7207.699  7207.690  0.500  1.478244  150.541323  34.329094  0.327843
  7209.613  7209.610  0.500  1.476109  150.475180  34.387362  0.318830
  7211.564  7211.550  0.500  1.474507  150.424815  34.430960  0.287221
  7213.514  7213.510  0.500  1.473086  150.374357  34.468363  0.244044
  7215.495  7215.480  0.500  1.472054  150.357831  34.500151  0.203661
  7217.485  7217.480  0.500  1.470783  150.285578  34.527422  0.174718
  7219.511  7219.490  0.500  1.470093  150.236828  34.540057  0.158683
  7221.529  7221.520  0.500  1.469331  150.157267  34.548081  0.155613
  7223.593  7223.580  0.500  1.468455  150.098084  34.564751  0.165678
  7225.655  7225.650  0.500  1.467527  149.963019  34.565682  0.186483
  7227.757  7227.740  0.500  1.465865  147.343338  34.018355  0.212431
  7229.856  7229.850  0.500  1.464302  150.149346  34.720430  0.251632
  7231.993  7231.980  0.500  1.462481  150.099159  34.772101  0.290526
  7234.130  7234.120  0.500  1.460506  150.022422  34.823028  0.327382
  7236.308  7236.290  0.500  1.458830  149.988579  34.873577  0.354070
  7238.485  7238.480  0.500  1.457174  149.935466  34.918990  0.366504
  7240.699  7240.680  0.500  1.455493  149.921537  34.974479  0.365095
  7242.912  7242.900  0.500  1.453793  149.894857  35.027766  0.353204
  7245.162  7245.150  0.500  1.451917  147.083170  34.435267  0.329730
  7247.421  7247.410  0.500  1.450798  149.631552  35.071130  0.320904
  7249.703  7249.690  0.500  1.449043  149.647052  35.136359  0.314552
  7251.998  7251.990  0.500  1.447644  149.565496  35.166372  0.318072
  7254.321  7254.310  0.500  1.446149  147.673890  34.773545  0.324085
  7256.664  7256.650  0.500  1.444654  150.068057  35.390206  0.336990
  7259.004  7259.000  0.500  1.443041  149.914166  35.410972  0.334723
  7261.397  7261.380  0.500  1.441338  149.427646  35.356234  0.324748
  7263.784  7263.770  0.500  1.438598  138.917467  32.959583  0.294057
  7266.203  7266.190  0.500  1.437928  149.639274  35.527250  0.310295
  7268.632  7268.620  0.500  1.435913  150.268684  35.748621  0.303506
  7271.079  7271.070  0.500  1.434177  150.207320  35.796129  0.289809
  7273.563  7273.550  0.500  1.432126  149.045891  35.592278  0.272919
  7276.049  7276.040  0.500  1.430248  150.243392  35.945657  0.266807
  7278.564  7278.550  0.500  1.427896  150.204001  36.020869  0.262391
  7281.085  7281.070  0.500  1.425729  150.168259  36.090431  0.255448
  7283.633  7283.620  0.500  1.423378  149.135621  35.926602  0.244892
  7286.202  7286.190  0.500  1.421066  149.770037  36.162938  0.237713
  7288.779  7288.770  0.500  1.418897  149.859065  36.263013  0.235021
  7291.391  7291.380  0.500  1.416698  149.821940  36.333826  0.243824
  7294.012  7294.000  0.500  1.414708  149.781028  36.396287  0.265447
  7296.668  7296.650  0.500  1.412585  149.732115  36.461713  0.293654
  7299.322  7299.310  0.500  1.410725  149.622418  36.502827  0.322619
  7302.006  7301.990  0.500  1.408526  147.899939  36.162057  0.343813
  7304.707  7304.690  0.500  1.406004  149.780434  36.714323  0.368326
  7307.426  7307.410  0.500  1.403834  149.677446  36.768766  0.382239
  7310.163  7310.150  0.500  1.401624  149.630662  36.838576  0.388166
  7312.910  7312.900  0.500  1.399648  149.564388  36.895112  0.388096
  7315.692  7315.680  0.500  1.397739  149.496644  36.948883  0.388970
  7318.483  7318.470  0.500  1.395939  149.431561  36.999306  0.390880
  7321.304  7321.290  0.500  1.394155  149.376815  37.051807  0.393500
  7324.134  7324.120  0.500  1.391901  149.331842  37.124226  0.395449
  7326.983  7326.970  0.500  1.389950  149.275203  37.182608  0.396605
  7329.861  7329.850  0.500  1.387880  149.180240  37.235973  0.399306
  7332.760  7332.740  0.500  1.385796  149.136688  37.302765  0.407437
  7335.665  7335.650  0.500  1.383503  149.073687  37.372584  0.417842
  7338.582  7338.570  0.500  1.381469  147.853579  37.142186  0.420374
  7341.532  7341.520  0.500  1.379675  148.852663  37.460294  0.420273
  7344.497  7344.490  0.500  1.377615  148.856104  37.538433  0.406077
  7347.488  7347.470  0.500  1.375509  148.799114  37.603150  0.384865
  7350.498  7350.480  0.500  1.373334  148.717137  37.664269  0.364570
  7353.517  7353.500  0.500  1.371061  148.655010  37.734212  0.347909
  7356.562  7356.550  0.500  1.368816  148.577757  37.799362  0.334096
  7359.621  7359.610  0.500  1.366711  148.477906  37.853573  0.322326
  7362.703  7362.690  0.500  1.364108  148.408685  37.934541  0.314102
  7365.802  7365.790  0.500  1.361953  148.358425  38.003487  0.311271
  7368.924  7368.910  0.500  1.359705  148.268172  38.065854  0.315943
  7372.069  7372.050  0.500  1.357176  148.215220  38.148611  0.329852
  7375.213  7375.200  0.500  1.354949  148.198331  38.229317  0.355128
  7378.393  7378.380  0.500  1.352711  148.075183  38.283128  0.392355
  7381.584  7381.570  0.500  1.350132  147.992248  38.360472  0.435917
  7384.806  7384.790  0.500  1.347739  147.919455  38.433481  0.469366
  7388.031  7388.020  0.500  1.345332  147.873340  38.514100  0.483516
  7391.284  7391.270  0.500  1.343015  147.795646  38.583162  0.481998
  7394.563  7394.550  0.500  1.340523  147.715801  38.658532  0.474225
  7397.848  7397.840  0.500  1.338124  147.611151  38.723924  0.468962
  7401.160  7401.150  0.500  1.335727  147.510430  38.790349  0.469288
  7404.479  7404.470  0.500  1.333235  147.440977  38.868838  0.472297
  7407.833  7407.820  0.500  1.330810  147.377186  38.946344  0.472607
  7411.203  7411.190  0.500  1.328390  147.294170  39.018727  0.472771
  7414.583  7414.570  0.500  1.326031  147.172109  39.078464  0.472862
  7417.987  7417.980  0.500  1.323625  147.049337  39.139912  0.475429
  7421.404  7421.400  0.500  1.321355  146.883610  39.184659  0.481527
  7424.854  7424.850  0.500  1.318812  146.881781  39.283959  0.493186
  7428.322  7428.310  0.500  1.316359  146.796704  39.357624  0.501308
  7431.807  7431.790  0.500  1.313791  146.702811  39.433568  0.503344
  7435.305  7435.290  0.500  1.311115  146.599411  39.511367  0.501431
  7438.819  7438.810  0.500  1.308662  146.475371  39.574894  0.494779
  7442.354  7442.350  0.500  1.306202  146.322595  39.630998  0.481992
  7445.903  7445.900  0.500  1.303577  142.424623  38.676654  0.456425
  7449.493  7449.480  0.500  1.301289  146.227217  39.800226  0.459622
  7453.091  7453.080  0.500  1.298780  144.931473  39.546648  0.453185
  7456.700  7456.690  0.500  1.296201  146.023244  39.947459  0.458650
  7460.336  7460.320  0.500  1.293944  145.428975  39.874774  0.461004
  7463.992  7463.980  0.500  1.291133  145.838858  40.099734  0.470608
  7467.664  7467.650  0.500  1.288469  141.844891  39.105590  0.471104
  7471.347  7471.340  0.500  1.285994  145.764156  40.285693  0.502011
  7475.063  7475.050  0.500  1.283518  145.599429  40.339914  0.518430
  7478.789  7478.780  0.500  1.281084  145.471559  40.402681  0.531872
  7482.533  7482.520  0.500  1.278511  145.319413  40.464419  0.544531
  7486.303  7486.290  0.500  1.275777  145.174983  40.534887  0.560217
  7490.098  7490.080  0.500  1.273273  145.070269  40.607195  0.577026
  7493.897  7493.880  0.500  1.270600  144.979990  40.690548  0.589513
  7497.731  7497.710  0.500  1.267999  144.875511  40.767099  0.594403
  7501.565  7501.550  0.500  1.265351  144.752782  40.840576  0.593423
  7505.439  7505.410  0.500  1.262757  144.598217  40.902953  0.590852
  7509.309  7509.290  0.500  1.259937  144.448812  40.976059  0.591093
  7513.194  7513.190  0.500  1.257289  144.305651  41.044015  0.594729
  7517.125  7517.110  0.500  1.254816  144.188819  41.112324  0.600660
  7521.047  7521.050  0.500  1.252129  144.063539  41.187107  0.605385
  7525.019  7525.010  0.500  1.249313  143.951401  41.271094  0.608282
  7528.997  7528.980  0.500  1.246657  143.824973  41.344511  0.608658
  7532.999  7532.980  0.500  1.244129  143.685092  41.408888  0.609282
  7537.011  7536.990  0.500  1.241427  143.528097  41.475546  0.612753
  7541.051  7541.030  0.500  1.238977  143.391924  41.537816  0.618199
  7545.115  7545.080  0.500  1.236206  143.220341  41.603231  0.623529
  7549.178  7549.150  0.500  1.233337  143.085444  41.683478  0.628628
  7553.261  7553.240  0.500  1.230734  142.933034  41.747609  0.628571
  7557.387  7557.350  0.500  1.228061  142.764514  41.810010  0.624837
  7561.508  7561.480  0.500  1.225245  142.656560  41.896195  0.621210
  7565.627  7565.630  0.500  1.222549  142.503999  41.964358  0.621184
  7569.809  7569.790  0.500  1.219860  142.387285  42.042916  0.626927
  7573.973  7573.980  0.500  1.217120  142.197649  42.102117  0.638408
  7578.196  7578.180  0.500  1.214343  142.037758  42.171705  0.654110
  7582.400  7582.410  0.500  1.211654  141.871214  42.235687  0.670873
  7586.670  7586.650  0.500  1.209179  141.675369  42.281899  0.684039
  7590.902  7590.910  0.500  1.206515  141.493283  42.340222  0.693229
  7595.177  7595.190  0.500  1.203693  141.270463  42.392998  0.697938
  7599.477  7599.490  0.500  1.200939  141.015310  42.433126  0.700779
  7603.796  7603.810  0.500  1.198107  140.496186  42.396820  0.703737
  7608.137  7608.150  0.500  1.195222  140.255520  42.446474  0.711447
  7612.501  7612.510  0.500  1.192546  140.017577  42.488007  0.721799
  7616.913  7616.890  0.500  1.189706  139.979567  42.597296  0.730221
  7621.297  7621.280  0.500  1.186856  140.064008  42.744611  0.734703
  7625.721  7625.700  0.500  1.183742  140.028259  42.866984  0.737252
  7630.151  7630.130  0.500  1.180901  139.925572  42.957442  0.741826
  7634.566  7634.580  0.500  1.178128  139.786865  43.034011  0.749956
  7639.073  7639.050  0.500  1.175332  139.584082  43.091905  0.760874
  7643.524  7643.540  0.500  1.172402  139.434183  43.171932  0.772851
  7648.030  7648.050  0.500  1.169608  139.252993  43.236460  0.782494
  7652.601  7652.580  0.500  1.167153  139.123169  43.302355  0.789757
  7657.116  7657.130  0.500  1.164195  138.957916  43.379048  0.795619
  7661.676  7661.700  0.500  1.161172  138.765346  43.450062  0.799232
  7666.272  7666.280  0.500  1.158573  138.550320  43.495638  0.800515
  7670.883  7670.890  0.500  1.155789  138.351445  43.554306  0.801719
  7675.508  7675.510  0.500  1.152649  138.129274  43.621104  0.802762
  7680.156  7680.160  0.500  1.149799  137.966200  43.693946  0.804048
  7684.813  7684.820  0.500  1.147040  137.668546  43.720149  0.807455
  7689.483  7689.500  0.500  1.144286  137.813908  43.887021  0.817108
  7694.189  7694.200  0.500  1.141423  137.499582  43.912470  0.825989
  7698.914  7698.920  0.500  1.138528  137.281697  43.969967  0.835666
  7703.662  7703.660  0.500  1.135659  137.066833  44.027307  0.845130
  7708.394  7708.410  0.500  1.132654  137.009405  44.141285  0.855689
  7713.190  7713.190  0.500  1.130002  136.727457  44.167418  0.865689
  7717.967  7717.990  0.500  1.126981  136.478211  44.220317  0.876505
  7722.776  7722.800  0.500  1.123760  136.334621  44.316283  0.887717
  7727.608  7727.630  0.500  1.120912  136.104520  44.367671  0.894850
  7732.465  7732.490  0.500  1.117824  135.892320  44.435518  0.901820
  7737.341  7737.360  0.500  1.114923  135.490044  44.432689  0.907283
  7742.241  7742.250  0.500  1.111925  135.645516  44.617233  0.917054
  7747.191  7747.160  0.500  1.109122  135.382833  44.655806  0.924536
  7752.088  7752.090  0.500  1.105948  135.173556  44.728511  0.931446
  7757.018  7757.030  0.500  1.102986  134.987179  44.799376  0.939119
  7761.985  7762.000  0.500  1.100089  134.776272  44.859115  0.948749
  7766.987  7766.990  0.500  1.097031  135.033270  45.082305  0.962422
  7771.970  7771.990  0.500  1.094123  134.795368  45.133965  0.972989
  7777.003  7777.020  0.500  1.090986  134.568615  45.199617  0.983012
  7782.079  7782.060  0.500  1.088007  134.378390  45.270377  0.992457
  7787.103  7787.120  0.500  1.085289  134.137494  45.312204  1.000562
  7792.203  7792.200  0.500  1.082171  133.940384  45.386903  1.009018
  7797.287  7797.300  0.500  1.079442  133.749073  45.445934  1.015904
  7802.393  7802.420  0.500  1.076454  133.574909  45.522589  1.022720
  7807.556  7807.560  0.500  1.073379  133.327282  45.578129  1.028918
  7812.697  7812.720  0.500  1.070116  133.124027  45.657385  1.035757
  7817.892  7817.900  0.500  1.067140  132.916003  45.721907  1.043018
  7823.076  7823.090  0.500  1.064216  132.704490  45.782795  1.051339
  7828.290  7828.310  0.500  1.061641  132.491548  45.827220  1.058325
  7833.517  7833.540  0.500  1.058673  132.275186  45.888342  1.066435
  7838.778  7838.790  0.500  1.055368  131.690271  45.836663  1.071711
  7844.056  7844.060  0.500  1.052287  131.850899  46.034205  1.083967
  7849.334  7849.350  0.500  1.049200  131.568609  46.077677  1.093185
  7854.643  7854.660  0.500  1.046256  130.486473  45.833408  1.095447
  7859.972  7859.990  0.500  1.043125  131.120198  46.200463  1.113133
  7865.330  7865.340  0.500  1.040051  130.943833  46.280358  1.125080
  7870.685  7870.710  0.500  1.037060  130.681937  46.326155  1.135977
  7876.072  7876.090  0.500  1.033778  130.448148  46.395262  1.148074
  7881.476  7881.500  0.500  1.030722  130.160844  46.434787  1.158076
  7886.902  7886.920  0.500  1.027876  129.976549  46.501196  1.169184
  7892.343  7892.370  0.500  1.024789  129.763107  46.568383  1.179905
  7897.800  7897.830  0.500  1.021870  129.457214  46.594401  1.189366
  7903.273  7903.310  0.500  1.018602  129.250009  46.672105  1.201024
  7908.789  7908.810  0.500  1.015536  129.011767  46.729121  1.211572
  7914.304  7914.330  0.500  1.012697  128.659065  46.733866  1.220364
  7919.846  7919.870  0.500  1.009623  128.461271  46.805686  1.231256
  7925.399  7925.420  0.500  1.006227  128.226429  46.879057  1.242003
  7930.979  7931.000  0.500  1.003218  127.849303  46.882044  1.251209
  7936.588  7936.600  0.500  1.000377  127.506387  46.889319  1.258954
  7942.184  7942.210  0.500  0.997356  127.534398  47.041509  1.269528
  7947.832  7947.850  0.500  0.994214  127.182615  47.059373  1.277660
  7953.474  7953.500  0.500  0.991285  126.841040  47.070648  1.285822
  7959.149  7959.170  0.500  0.988257  126.613648  47.128740  1.296883
  7964.837  7964.860  0.500  0.984912  126.275012  47.160176  1.305506
