# XDI/1.0 BlueSky/1.10.0 BMM/2023-1.0-py310-tiled
# Beamline.name: BMM (06BM) -- Beamline for Materials Measurement (NIST)
# Beamline.xray_source: NSLS-II three-pole wiggler
# Beamline.collimation: paraboloid mirror, 5 nm Rh on 30 nm Pt
# Beamline.focusing: not in use
# Beamline.harmonic_rejection: flat mirror, Si stripe, pitch = 7.0 mrad relative to beam
# Beamline.software: Bluesky 1.10.0, Ophyd 1.7.0, DataBroker 2.0.0b13, Python 3.10.8, 2023-1.0-py310-tiled
# Detector.I0: 10 cm N2
# Detector.I1: 25 cm N2
# Detector.I2: 25 cm N2
# Element.symbol: Fe
# Element.edge: K
# Element.reference: Fe
# Element.reference_material: Fe foil
# Facility.name: NSLS-II
# Facility.energy: 3.0
# Facility.current: 400.3
# Facility.mode: top-off
# Facility.GUP: 123456
# Facility.SAF: 301027
# Facility.cycle: 2023-2
# Mono.name: Si(111)
# Mono.d_spacing: 3.1351860
# Mono.encoder_resolution: 0.0000050 deg/ct
# Mono.angle_offset: 16.0754326 deg
# Mono.scan_mode: pseudo channel cut
# Mono.scan_type: step
# Mono.direction: forward in energy
# Sample.name: Fe2(C2O4)3(H2O)6
# Sample.prep: PEG pellet
# Sample.x: 116.329 mm
# Sample.y: 114.126 mm
# Sample.SDD_position: 205.000 mm
# Scan.experimenters: Bruce Ravel
# Scan.edge_energy: 7112.0
# Scan.start_time: 2023-05-05T18:59:07
# Scan.end_time: 2023-05-05T19:07:20
# Scan.transient_id: 74571
# Scan.uid: 59b9a2a3-52cd-4206-91a3-442220bb8a6e
# Scan.plot_hint: ln(I0/It)  --  ln($5/$6)
# Column.1: energy eV
# Column.2: requested_energy eV
# Column.3: measurement_time seconds
# Column.4: xmu 
# Column.5: I0 nA
# Column.6: It nA
# Column.7: Ir nA
# ///////////
# courtesy Martin Stennett, University of Sheffield
# -----------
# energy  requested_energy  measurement_time  xmu  I0  It  Ir
  6912.007  6912.000  0.500  1.758884  153.880699  26.503956  4.969621
  6922.009  6922.000  0.500  1.748579  153.684247  26.744294  5.050698
  6932.017  6932.000  0.500  1.738051  153.651359  27.021564  5.138827
  6942.015  6942.000  0.500  1.727948  153.649072  27.295548  5.227750
  6952.010  6952.000  0.500  1.717736  153.606314  27.568021  5.316285
  6962.014  6962.000  0.500  1.707535  153.609187  27.851217  5.408882
  6972.030  6972.000  0.500  1.697632  153.583424  28.123692  5.499725
  6982.006  6982.000  0.500  1.687518  153.532846  28.400216  5.592008
  6992.014  6992.000  0.500  1.677564  153.491825  28.676647  5.684259
  7002.004  7002.000  0.500  1.667820  153.441476  28.947949  5.776613
  7012.004  7012.000  0.500  1.657914  153.354191  29.219488  5.869410
  7022.010  7022.000  0.500  1.648457  153.313662  29.489345  5.962028
  7032.012  7032.000  0.500  1.638796  153.225425  29.758470  6.055167
  7042.008  7042.000  0.500  1.629430  153.146353  30.022996  6.147963
  7052.009  7052.000  0.500  1.620248  153.061075  30.283087  6.237294
  7062.008  7062.000  0.500  1.610620  152.336212  30.431246  6.303092
  7072.009  7072.000  0.500  1.601649  152.863477  30.811739  6.413648
  7081.978  7082.000  0.500  1.593390  152.964029  31.087714  6.494048
  7083.976  7084.000  0.500  1.591729  152.700775  31.085814  6.495438
  7085.978  7086.000  0.500  1.590164  152.848177  31.164554  6.514010
  7087.983  7088.000  0.500  1.588680  152.844634  31.210113  6.524501
  7089.983  7090.000  0.500  1.587293  152.824418  31.249286  6.533317
  7091.987  7092.000  0.500  1.585876  152.765587  31.281569  6.536760
  7093.978  7094.000  0.500  1.584670  152.762322  31.318642  6.540385
  7095.984  7096.000  0.500  1.583488  152.779081  31.359130  6.541814
  7098.001  7098.000  0.500  1.582456  152.716592  31.378663  6.534154
  7099.994  7100.000  0.500  1.581528  152.693985  31.403123  6.521233
  7101.999  7102.000  0.500  1.580978  152.667366  31.414949  6.496415
  7102.288  7102.300  0.500  1.580915  152.678349  31.419168  6.492563
  7102.585  7102.600  0.500  1.580982  152.671822  31.415728  6.486196
  7102.882  7102.900  0.500  1.581425  152.676148  31.402710  6.477766
  7103.186  7103.200  0.500  1.581273  152.670792  31.406378  6.472546
  7103.479  7103.500  0.500  1.581087  152.662433  31.410487  6.465711
  7103.783  7103.800  0.500  1.581015  152.646455  31.409481  6.457893
  7104.084  7104.100  0.500  1.581099  152.636053  31.404708  6.449679
  7104.384  7104.400  0.500  1.581252  152.641776  31.401058  6.439417
  7104.683  7104.700  0.500  1.581349  152.635043  31.396623  6.430014
  7104.987  7105.000  0.500  1.581386  152.614130  31.391183  6.418289
  7105.287  7105.300  0.500  1.581650  152.625806  31.385294  6.405709
  7105.589  7105.600  0.500  1.581821  152.649912  31.384872  6.394152
  7105.886  7105.900  0.500  1.582203  152.629606  31.368716  6.376812
  7106.186  7106.200  0.500  1.581844  152.607029  31.375346  6.363226
  7106.488  7106.500  0.500  1.582305  152.579681  31.355259  6.342295
  7106.792  7106.800  0.500  1.582407  152.555693  31.347118  6.323511
  7107.089  7107.100  0.500  1.582443  152.582518  31.351500  6.303537
  7107.387  7107.400  0.500  1.582679  152.567096  31.340963  6.279626
  7107.685  7107.700  0.500  1.582938  152.537068  31.326676  6.248645
  7107.985  7108.000  0.500  1.583542  152.536432  31.307625  6.215394
  7108.289  7108.300  0.500  1.584232  152.547714  31.288323  6.175387
  7108.589  7108.600  0.500  1.584409  152.559347  31.285199  6.132858
  7108.888  7108.900  0.500  1.584927  152.546250  31.266293  6.078173
  7109.186  7109.200  0.500  1.585406  152.521777  31.246323  6.014515
  7109.495  7109.500  0.500  1.586164  152.511273  31.220494  5.928915
  7109.797  7109.800  0.500  1.587257  152.513767  31.186877  5.816839
  7110.097  7110.100  0.500  1.588668  152.503502  31.140813  5.663008
  7110.397  7110.400  0.500  1.590833  152.491034  31.070947  5.447152
  7110.699  7110.700  0.500  1.593932  152.459650  30.968416  5.146419
  7110.995  7111.000  0.500  1.598279  152.425758  30.827248  4.757480
  7111.297  7111.300  0.500  1.603292  152.397648  30.667437  4.289883
  7111.595  7111.600  0.500  1.607019  152.377788  30.549369  3.820821
  7111.889  7111.900  0.500  1.609302  152.351602  30.474476  3.406161
  7112.191  7112.200  0.500  1.609827  152.325301  30.453209  3.080111
  7112.487  7112.500  0.500  1.609915  152.297280  30.444936  2.837231
  7112.796  7112.800  0.500  1.609747  152.268379  30.444260  2.654378
  7113.097  7113.100  0.500  1.609698  152.270511  30.446186  2.508434
  7113.395  7113.400  0.500  1.610234  152.271762  30.430126  2.380017
  7113.697  7113.700  0.500  1.611021  152.245762  30.400986  2.262650
  7113.995  7114.000  0.500  1.611748  152.195673  30.368888  2.156066
  7114.300  7114.300  0.500  1.612567  152.175065  30.339941  2.061256
  7114.600  7114.600  0.500  1.613046  152.172075  30.324798  1.984562
  7114.897  7114.900  0.500  1.614212  152.186872  30.292406  1.924824
  7115.197  7115.200  0.500  1.616573  152.185757  30.220761  1.877806
  7115.498  7115.500  0.500  1.620176  152.196741  30.114248  1.840799
  7115.802  7115.800  0.500  1.624799  152.187440  29.973497  1.810536
  7116.097  7116.100  0.500  1.630019  152.174237  29.814867  1.784331
  7116.395  7116.400  0.500  1.635921  152.155410  29.635752  1.756120
  7116.691  7116.700  0.500  1.642486  152.145567  29.439914  1.720566
  7116.996  7117.000  0.500  1.650665  152.133927  29.197884  1.670626
  7117.303  7117.300  0.500  1.660407  152.083468  28.905231  1.602034
  7117.598  7117.600  0.500  1.673183  152.087974  28.539143  1.515725
  7117.898  7117.900  0.500  1.690299  152.097007  28.056472  1.408364
  7118.199  7118.200  0.500  1.713438  152.082411  27.412092  1.287570
  7118.502  7118.500  0.500  1.744165  152.058513  26.578437  1.159885
  7118.805  7118.800  0.500  1.782941  152.043536  25.565044  1.032148
  7119.101  7119.100  0.500  1.828233  152.027762  24.430448  0.912660
  7119.398  7119.400  0.500  1.877283  152.022289  23.260198  0.803260
  7119.697  7119.700  0.500  1.927557  152.009761  22.117918  0.705636
  7119.995  7120.000  0.500  1.980523  151.989170  20.974061  0.615645
  7120.301  7120.300  0.500  2.036562  151.961438  19.827403  0.533391
  7120.593  7120.600  0.500  2.096016  151.957187  18.682421  0.460160
  7120.894  7120.900  0.500  2.158166  151.930446  17.553562  0.396215
  7121.195  7121.200  0.500  2.220219  151.931026  16.497480  0.342587
  7121.502  7121.500  0.500  2.278005  152.042890  15.582642  0.299271
  7121.803  7121.800  0.500  2.328178  152.448872  14.859677  0.266055
  7122.105  7122.100  0.500  2.371097  152.439849  14.234568  0.239213
  7122.403  7122.400  0.500  2.408734  152.412593  13.706317  0.217306
  7122.702  7122.700  0.500  2.444516  152.426977  13.225807  0.198577
  7123.004  7123.000  0.500  2.479959  152.395804  12.762639  0.182467
  7123.307  7123.300  0.500  2.517470  152.359365  12.289832  0.167723
  7123.600  7123.600  0.500  2.556115  152.340517  11.822490  0.154812
  7123.899  7123.900  0.500  2.598080  152.306484  11.334085  0.142921
  7124.198  7124.200  0.500  2.643574  152.296086  10.829267  0.131605
  7124.503  7124.500  0.500  2.691445  152.306539  10.323777  0.121375
  7124.798  7124.800  0.500  2.738990  152.275293  9.842407  0.111680
  7125.091  7125.100  0.500  2.784219  152.295218  9.408387  0.103611
  7125.397  7125.400  0.500  2.825717  152.253628  9.023483  0.095940
  7125.700  7125.700  0.500  2.860530  152.229669  8.713387  0.089909
  7126.002  7126.000  0.500  2.886927  152.217843  8.485728  0.084836
  7126.303  7126.300  0.500  2.903674  152.194783  8.343538  0.080957
  7126.600  7126.600  0.500  2.908831  152.190309  8.300375  0.078099
  7126.900  7126.900  0.500  2.901942  152.169221  8.356598  0.075542
  7127.205  7127.200  0.500  2.885563  152.169757  8.494628  0.074170
  7127.503  7127.500  0.500  2.863465  152.125297  8.681892  0.072662
  7127.806  7127.800  0.500  2.839431  152.082475  8.890582  0.071291
  7128.099  7128.100  0.500  2.816336  152.063189  9.097138  0.069925
  7128.399  7128.400  0.500  2.794261  152.054064  9.299637  0.068005
  7128.703  7128.700  0.500  2.773537  152.007078  9.491434  0.065973
  7128.998  7129.000  0.500  2.754972  151.998731  9.668763  0.063945
  7129.300  7129.300  0.500  2.738189  151.923191  9.827514  0.061892
  7129.597  7129.600  0.500  2.723529  151.934796  9.973409  0.059805
  7129.899  7129.900  0.500  2.710844  151.884117  10.097354  0.057884
  7130.205  7130.200  0.500  2.698579  151.881343  10.221777  0.056470
  7130.502  7130.500  0.500  2.687762  151.840278  10.330152  0.055482
  7130.800  7130.800  0.500  2.676557  151.814597  10.444788  0.054934
  7131.102  7131.100  0.500  2.665374  151.792387  10.560703  0.055019
  7131.402  7131.400  0.500  2.653111  151.778997  10.690066  0.055906
  7131.704  7131.700  0.500  2.639899  151.765464  10.831269  0.057748
  7132.003  7132.000  0.500  2.626804  151.744455  10.972517  0.060110
  7132.303  7132.300  0.500  2.613514  151.710957  11.116864  0.063014
  7132.597  7132.600  0.500  2.599994  151.701330  11.267463  0.066269
  7132.899  7132.900  0.500  2.585954  151.694833  11.426285  0.070134
  7133.201  7133.200  0.500  2.570827  151.709551  11.601579  0.074321
  7133.498  7133.500  0.500  2.555460  151.714930  11.781653  0.078919
  7133.796  7133.800  0.500  2.540611  151.713123  11.957760  0.083387
  7134.098  7134.100  0.500  2.526737  151.680048  12.122178  0.087950
  7134.403  7134.400  0.500  2.514123  151.690546  12.276905  0.092122
  7134.707  7134.700  0.500  2.502937  151.700905  12.415850  0.096034
  7135.001  7135.000  0.500  2.493037  151.680466  12.537690  0.099536
  7135.296  7135.300  0.500  2.484504  151.669099  12.644176  0.102701
  7135.601  7135.600  0.500  2.476779  151.630911  12.739034  0.105351
  7135.901  7135.900  0.500  2.470670  151.640962  12.817943  0.107581
  7136.203  7136.200  0.500  2.466409  151.629570  12.871702  0.109428
  7136.501  7136.500  0.500  2.463566  151.616912  12.907277  0.110362
  7136.797  7136.800  0.500  2.462168  151.634187  12.926800  0.110654
  7136.998  7137.000  0.500  2.461700  151.631035  12.932588  0.111108
  7137.996  7137.990  0.500  2.462505  151.643002  12.923201  0.108864
  7138.997  7138.990  0.500  2.459930  151.651052  12.957213  0.104418
  7140.023  7140.010  0.500  2.452880  151.613522  13.045653  0.100173
  7141.083  7141.060  0.500  2.446173  151.602750  13.132512  0.097447
  7142.110  7142.120  0.500  2.443337  151.576217  13.167492  0.096960
  7143.190  7143.200  0.500  2.442366  151.550531  13.178060  0.098549
  7144.294  7144.300  0.500  2.436245  151.551700  13.259076  0.101004
  7145.420  7145.420  0.500  2.417420  151.538032  13.509821  0.102254
  7146.559  7146.560  0.500  2.389194  151.533229  13.896136  0.101654
  7147.707  7147.710  0.500  2.360321  151.523077  14.302245  0.097999
  7148.892  7148.890  0.500  2.336212  151.526848  14.651613  0.093699
  7150.087  7150.080  0.500  2.320827  151.537226  14.879802  0.090695
  7151.301  7151.300  0.500  2.313058  151.523152  14.994457  0.088774
  7152.527  7152.530  0.500  2.312720  151.506351  14.997854  0.086967
  7153.786  7153.780  0.500  2.318187  151.478256  14.913332  0.085572
  7155.049  7155.050  0.500  2.324784  151.451685  14.812667  0.085582
  7156.337  7156.340  0.500  2.330530  151.441030  14.726757  0.086730
  7157.650  7157.650  0.500  2.336810  151.433819  14.633868  0.087634
  7158.978  7158.980  0.500  2.345488  151.420507  14.506145  0.087292
  7160.330  7160.330  0.500  2.358163  151.408574  14.322321  0.086442
  7161.707  7161.700  0.500  2.374516  151.347105  14.084282  0.085627
  7163.084  7163.080  0.500  2.395122  151.317170  13.794303  0.085299
  7164.491  7164.490  0.500  2.419437  151.251037  13.457065  0.084910
  7165.913  7165.910  0.500  2.443583  151.221122  13.133424  0.084295
  7167.353  7167.350  0.500  2.465400  151.168551  12.845522  0.083578
  7168.816  7168.810  0.500  2.483158  151.131603  12.616337  0.083158
  7170.296  7170.290  0.500  2.496675  151.117235  12.445774  0.083301
  7171.793  7171.790  0.500  2.507572  151.070128  12.307049  0.084862
  7173.321  7173.310  0.500  2.509947  151.003283  12.272426  0.088409
  7174.849  7174.850  0.500  2.505716  151.005359  12.324622  0.093323
  7176.413  7176.410  0.500  2.496992  150.960619  12.428937  0.099726
  7177.987  7177.980  0.500  2.485488  150.944246  12.571371  0.106265
  7179.589  7179.580  0.500  2.473488  150.933747  12.722251  0.111319
  7181.195  7181.190  0.500  2.463172  150.893534  12.850754  0.113464
  7182.832  7182.830  0.500  2.455012  150.873838  12.954360  0.113526
  7184.496  7184.480  0.500  2.448898  150.849305  13.031677  0.111800
  7186.152  7186.150  0.500  2.442656  150.797749  13.108793  0.108109
  7187.849  7187.840  0.500  2.435007  150.798207  13.209490  0.103315
  7189.557  7189.550  0.500  2.427065  150.766042  13.311982  0.098620
  7191.292  7191.280  0.500  2.418597  149.162598  13.282399  0.092540
  7193.044  7193.030  0.500  2.410004  150.374413  13.505873  0.089022
  7194.798  7194.790  0.500  2.400788  150.538131  13.645748  0.088117
  7196.593  7196.580  0.500  2.391051  150.529738  13.778503  0.090788
  7198.390  7198.380  0.500  2.382052  150.495422  13.899889  0.096214
  7200.222  7200.210  0.500  2.375095  150.443221  13.992073  0.103719
  7202.055  7202.050  0.500  2.369611  150.399278  14.064909  0.112247
  7203.924  7203.910  0.500  2.365438  150.343388  14.118476  0.121934
  7205.795  7205.790  0.500  2.361527  150.303132  14.170008  0.131493
  7207.701  7207.690  0.500  2.357820  150.261506  14.218685  0.136009
  7209.620  7209.610  0.500  2.353965  150.195586  14.267350  0.132341
  7211.560  7211.550  0.500  2.350587  150.126193  14.309006  0.119464
  7213.523  7213.510  0.500  2.348262  150.081902  14.338081  0.101652
  7215.493  7215.480  0.500  2.347079  150.062398  14.353185  0.084841
  7217.494  7217.480  0.500  2.347458  149.993609  14.341175  0.072824
  7219.502  7219.490  0.500  2.349661  149.930673  14.303617  0.066074
  7221.533  7221.520  0.500  2.353081  149.882277  14.250176  0.064530
  7223.595  7223.580  0.500  2.357662  149.815783  14.178744  0.068239
  7225.660  7225.650  0.500  2.362394  149.684612  14.099466  0.076417
  7227.753  7227.740  0.500  2.366404  147.069165  13.797658  0.086336
  7229.860  7229.850  0.500  2.369853  149.862007  14.011270  0.101845
  7231.993  7231.980  0.500  2.372215  149.794722  13.971942  0.117253
  7234.128  7234.120  0.500  2.373793  149.738534  13.944672  0.131198
  7236.303  7236.290  0.500  2.374221  149.704153  13.935512  0.141873
  7238.489  7238.480  0.500  2.373589  149.669580  13.941100  0.146668
  7240.694  7240.680  0.500  2.372388  149.634056  13.954535  0.146056
  7242.908  7242.900  0.500  2.370556  149.609976  13.977875  0.141130
  7245.158  7245.150  0.500  2.367091  146.816173  13.764472  0.131963
  7247.421  7247.410  0.500  2.363322  149.347221  14.054627  0.128872
  7249.701  7249.690  0.500  2.358993  149.351634  14.116017  0.126664
  7252.009  7251.990  0.500  2.354321  149.243274  14.171836  0.128647
  7254.319  7254.310  0.500  2.349944  146.906538  14.011134  0.130764
  7256.662  7256.650  0.500  2.345798  149.317330  14.300239  0.136419
  7259.010  7259.000  0.500  2.341670  149.127030  14.341083  0.135827
  7261.394  7261.380  0.500  2.338191  148.716699  14.351470  0.131937
  7263.782  7263.770  0.500  2.334277  137.889493  13.358797  0.119424
  7266.203  7266.190  0.500  2.331143  148.962935  14.476906  0.126415
  7268.634  7268.620  0.500  2.327577  149.594555  14.590224  0.124056
  7271.083  7271.070  0.500  2.323962  149.517486  14.635514  0.118600
  7273.565  7273.550  0.500  2.320083  148.313418  14.574088  0.111975
  7276.056  7276.040  0.500  2.316888  149.539006  14.741539  0.109685
  7278.559  7278.550  0.500  2.313472  149.477354  14.785890  0.107977
  7281.085  7281.070  0.500  2.309568  149.396093  14.835650  0.105357
  7283.628  7283.620  0.500  2.305503  148.315217  14.788306  0.100968
  7286.202  7286.190  0.500  2.301436  149.188685  14.936028  0.098387
  7288.788  7288.770  0.500  2.297344  149.644450  15.043075  0.097824
  7291.393  7291.380  0.500  2.293124  149.609039  15.103121  0.101811
  7294.009  7294.000  0.500  2.288722  149.618393  15.170697  0.110916
  7296.670  7296.650  0.500  2.284216  149.547506  15.232001  0.123061
  7299.320  7299.310  0.500  2.280406  149.422515  15.277356  0.135413
  7301.999  7301.990  0.500  2.277341  147.702328  15.147843  0.144510
  7304.705  7304.690  0.500  2.274359  149.533657  15.381451  0.154667
  7307.424  7307.410  0.500  2.272236  149.450546  15.405572  0.160171
  7310.163  7310.150  0.500  2.270006  149.373612  15.432023  0.162823
  7312.916  7312.900  0.500  2.268395  149.308895  15.450207  0.162846
  7315.701  7315.680  0.500  2.266892  149.239511  15.466247  0.163062
  7318.483  7318.470  0.500  2.265078  149.173271  15.487456  0.163947
  7321.300  7321.290  0.500  2.263491  149.137123  15.508298  0.164837
  7324.137  7324.120  0.500  2.261351  149.070825  15.534615  0.165654
  7326.983  7326.970  0.500  2.259286  149.006888  15.560051  0.166123
  7329.859  7329.850  0.500  2.257052  148.951720  15.589066  0.167397
  7332.755  7332.740  0.500  2.254492  148.902467  15.623867  0.170779
  7335.665  7335.650  0.500  2.251904  148.854890  15.659342  0.175118
  7338.582  7338.570  0.500  2.249265  147.616560  15.570113  0.176245
  7341.534  7341.520  0.500  2.246296  148.616044  15.722147  0.176570
  7344.502  7344.490  0.500  2.243135  148.585240  15.768652  0.170767
  7347.486  7347.470  0.500  2.239966  148.519813  15.811735  0.162092
  7350.493  7350.480  0.500  2.236567  148.445071  15.857586  0.153820
  7353.515  7353.500  0.500  2.233152  148.410870  15.908161  0.147133
  7356.559  7356.550  0.500  2.229698  148.339810  15.955557  0.141249
  7359.625  7359.610  0.500  2.225637  148.271225  16.013092  0.136651
  7362.698  7362.690  0.500  2.221834  148.196899  16.066033  0.133308
  7365.802  7365.790  0.500  2.217924  148.125868  16.121255  0.132320
  7368.924  7368.910  0.500  2.213829  148.053267  16.179474  0.134515
  7372.067  7372.050  0.500  2.209925  147.993543  16.236198  0.140679
  7375.218  7375.200  0.500  2.205645  147.927455  16.298562  0.151398
  7378.395  7378.380  0.500  2.201448  147.809017  16.354013  0.167705
  7381.584  7381.570  0.500  2.197207  147.737607  16.415570  0.186631
  7384.801  7384.790  0.500  2.192799  147.675107  16.481130  0.201698
  7388.033  7388.020  0.500  2.188063  147.598114  16.550735  0.207999
  7391.279  7391.270  0.500  2.183742  147.511498  16.612649  0.207599
  7394.559  7394.550  0.500  2.179407  147.437119  16.676404  0.204734
  7397.851  7397.840  0.500  2.175379  147.364427  16.735454  0.202729
  7401.162  7401.150  0.500  2.171545  147.293183  16.791613  0.203327
  7404.481  7404.470  0.500  2.167813  147.207953  16.844655  0.204745
  7407.831  7407.820  0.500  2.164371  147.119208  16.892539  0.205296
  7411.203  7411.190  0.500  2.161436  147.046027  16.933766  0.205428
  7414.580  7414.570  0.500  2.158277  146.940244  16.975133  0.205505
  7417.987  7417.980  0.500  2.155350  146.846400  17.014006  0.206964
  7421.404  7421.400  0.500  2.152456  146.738371  17.050762  0.209884
  7424.859  7424.850  0.500  2.149816  146.629957  17.083209  0.214489
  7428.324  7428.310  0.500  2.146940  146.566363  17.124973  0.218761
  7431.802  7431.790  0.500  2.143994  146.474404  17.164737  0.219282
  7435.301  7435.290  0.500  2.141057  146.374994  17.203529  0.218534
  7438.823  7438.810  0.500  2.137893  146.246170  17.242870  0.215833
  7442.364  7442.350  0.500  2.134568  146.077080  17.280291  0.210429
  7445.905  7445.900  0.500  2.130823  142.241135  16.889651  0.199520
  7449.490  7449.480  0.500  2.127310  146.061619  17.404321  0.201053
  7453.093  7453.080  0.500  2.123159  144.764109  17.321460  0.198511
  7456.709  7456.690  0.500  2.119286  145.860632  17.520401  0.201417
  7460.336  7460.320  0.500  2.115281  145.233575  17.515087  0.202679
  7463.988  7463.980  0.500  2.111387  145.651526  17.634024  0.207184
  7467.664  7467.650  0.500  2.107646  141.657854  17.214787  0.207671
  7471.350  7471.340  0.500  2.103628  145.527888  17.756288  0.221480
  7475.060  7475.050  0.500  2.099495  145.350099  17.808046  0.229054
  7478.798  7478.780  0.500  2.095407  145.238324  17.867243  0.235487
  7482.536  7482.520  0.500  2.091844  145.129517  17.917588  0.241021
  7486.305  7486.290  0.500  2.088184  145.035047  17.971584  0.248724
  7490.098  7490.080  0.500  2.084060  144.894499  18.028365  0.256156
  7493.902  7493.880  0.500  2.080164  144.815676  18.088894  0.262217
  7497.731  7497.710  0.500  2.076085  144.694315  18.147603  0.264784
  7501.567  7501.550  0.500  2.071905  144.568316  18.207742  0.264960
  7505.443  7505.410  0.500  2.067685  144.434547  18.267832  0.263866
  7509.321  7509.290  0.500  2.063863  144.287223  18.319085  0.264520
  7513.206  7513.190  0.500  2.059599  144.156088  18.380633  0.266528
  7517.101  7517.110  0.500  2.055485  144.050595  18.442909  0.269576
  7521.040  7521.050  0.500  2.051429  143.890843  18.497327  0.272121
  7525.002  7525.010  0.500  2.047639  143.738521  18.547896  0.273566
  7528.985  7528.980  0.500  2.043529  143.622573  18.609261  0.274085
  7532.982  7532.980  0.500  2.039890  143.505881  18.661941  0.274835
  7537.013  7536.990  0.500  2.035964  143.364810  18.716938  0.276495
  7541.058  7541.030  0.500  2.032106  143.239427  18.772852  0.279502
  7545.083  7545.080  0.500  2.028306  143.099718  18.825937  0.282196
  7549.168  7549.150  0.500  2.024356  142.950173  18.880698  0.284723
  7553.273  7553.240  0.500  2.020576  142.792679  18.931315  0.285085
  7557.373  7557.350  0.500  2.016909  142.667183  18.984175  0.283790
  7561.469  7561.480  0.500  2.012831  142.498569  19.039211  0.282507
  7565.620  7565.630  0.500  2.009016  142.279213  19.082565  0.282414
  7569.779  7569.790  0.500  2.005109  142.229707  19.150603  0.285544
  7573.966  7573.980  0.500  2.001213  142.091799  19.206721  0.291569
  7578.169  7578.180  0.500  1.997252  141.934370  19.261584  0.299075
  7582.432  7582.410  0.500  1.993268  141.745509  19.312736  0.306820
  7586.640  7586.650  0.500  1.989248  141.583208  19.368329  0.313494
  7590.893  7590.910  0.500  1.985027  141.338564  19.416664  0.318012
  7595.175  7595.190  0.500  1.981091  141.121237  19.463248  0.320795
  7599.472  7599.490  0.500  1.977043  140.846890  19.504220  0.322409
  7603.833  7603.810  0.500  1.972788  140.285433  19.509300  0.324294
  7608.172  7608.150  0.500  1.968755  140.068568  19.557860  0.328377
  7612.499  7612.510  0.500  1.964657  139.828307  19.604483  0.333213
  7616.913  7616.890  0.500  1.960405  139.807370  19.685077  0.337897
  7621.262  7621.280  0.500  1.956384  139.879627  19.774606  0.340105
  7625.714  7625.700  0.500  1.952313  139.907886  19.859283  0.341477
  7630.151  7630.130  0.500  1.948315  139.803453  19.923956  0.344036
  7634.603  7634.580  0.500  1.944095  139.652408  19.986586  0.348656
  7639.068  7639.050  0.500  1.939859  139.502865  20.049930  0.354489
  7643.564  7643.540  0.500  1.935328  139.321251  20.114766  0.359974
  7648.057  7648.050  0.500  1.931096  139.094705  20.167232  0.365155
  7652.601  7652.580  0.500  1.926724  138.935203  20.232362  0.369098
  7657.116  7657.130  0.500  1.922546  138.740856  20.288653  0.372234
  7661.683  7661.700  0.500  1.918206  138.565878  20.351196  0.374763
  7666.302  7666.280  0.500  1.913856  138.351824  20.408344  0.375884
  7670.883  7670.890  0.500  1.909747  138.164327  20.464603  0.377100
  7675.503  7675.510  0.500  1.905432  137.960977  20.522846  0.377937
  7680.141  7680.160  0.500  1.901190  137.812292  20.587876  0.379131
  7684.810  7684.820  0.500  1.897517  137.521079  20.619980  0.380867
  7689.526  7689.500  0.500  1.893113  137.651733  20.730665  0.386029
  7694.192  7694.200  0.500  1.889144  137.329817  20.764424  0.390752
  7698.954  7698.920  0.500  1.884906  137.107299  20.818820  0.395925
  7703.695  7703.660  0.500  1.880751  136.743644  20.850072  0.400572
  7708.399  7708.410  0.500  1.876788  136.819788  20.944522  0.406016
  7713.188  7713.190  0.500  1.872701  136.536049  20.986674  0.411470
  7718.010  7717.990  0.500  1.868584  136.307812  21.038028  0.417218
  7722.801  7722.800  0.500  1.864761  136.171837  21.097539  0.422666
  7727.613  7727.630  0.500  1.860628  135.954700  21.151128  0.426951
  7732.488  7732.490  0.500  1.856439  135.706801  21.201203  0.430488
  7737.356  7737.360  0.500  1.851868  135.387896  21.248278  0.433897
  7742.274  7742.250  0.500  1.847363  135.461107  21.355772  0.439211
  7747.152  7747.160  0.500  1.843297  135.164339  21.395801  0.443511
  7752.073  7752.090  0.500  1.838985  134.980497  21.459019  0.447438
  7757.015  7757.030  0.500  1.834785  134.765852  21.515068  0.451249
  7761.993  7762.000  0.500  1.830623  134.565566  21.572701  0.456492
  7767.007  7766.990  0.500  1.826245  134.369458  21.635766  0.462612
  7772.011  7771.990  0.500  1.821898  134.122306  21.690062  0.467966
  7777.013  7777.020  0.500  1.817728  133.988369  21.758944  0.473755
  7782.051  7782.060  0.500  1.813351  133.753045  21.816014  0.478701
  7787.108  7787.120  0.500  1.809126  133.547321  21.874690  0.483383
  7792.187  7792.200  0.500  1.804792  133.336241  21.934960  0.487602
  7797.287  7797.300  0.500  1.800128  133.111287  22.000329  0.492264
  7802.406  7802.420  0.500  1.796131  132.937514  22.059614  0.495777
  7807.553  7807.560  0.500  1.791715  132.750188  22.126008  0.499607
  7812.694  7812.720  0.500  1.787315  132.540724  22.188523  0.503693
  7817.892  7817.900  0.500  1.782971  132.340043  22.251383  0.507933
  7823.063  7823.090  0.500  1.778773  132.116729  22.307267  0.512185
  7828.288  7828.310  0.500  1.774626  132.371231  22.443119  0.518485
  7833.567  7833.540  0.500  1.770218  132.147257  22.504139  0.522846
  7838.770  7838.790  0.500  1.765684  131.642806  22.520100  0.527048
  7844.043  7844.060  0.500  1.761781  131.753967  22.627265  0.533435
  7849.337  7849.350  0.500  1.757522  131.488769  22.678088  0.538377
  7854.651  7854.660  0.500  1.753026  130.397828  22.591280  0.540117
  7860.004  7859.990  0.500  1.748784  131.071611  22.804553  0.549886
  7865.330  7865.340  0.500  1.744438  130.841878  22.863730  0.555985
  7870.688  7870.710  0.500  1.740313  130.600188  22.915830  0.562138
  7876.080  7876.090  0.500  1.735986  130.356634  22.972275  0.568289
  7881.484  7881.500  0.500  1.731499  130.100354  23.030225  0.575197
  7886.913  7886.920  0.500  1.727537  129.856258  23.078263  0.580560
  7892.346  7892.370  0.500  1.723178  129.648416  23.141988  0.586656
  7897.822  7897.830  0.500  1.718736  129.350788  23.191648  0.592382
  7903.287  7903.310  0.500  1.714545  129.153779  23.253569  0.598767
  7908.786  7908.810  0.500  1.710109  128.949719  23.320055  0.605019
  7914.307  7914.330  0.500  1.705640  128.706069  23.380246  0.610763
  7919.846  7919.870  0.500  1.701331  128.406261  23.426515  0.616473
  7925.397  7925.420  0.500  1.697013  128.146295  23.480240  0.622340
  7930.974  7931.000  0.500  1.692805  127.761974  23.508533  0.627474
  7936.570  7936.600  0.500  1.688465  127.418422  23.547293  0.632618
  7942.187  7942.210  0.500  1.684125  127.432430  23.652325  0.638870
  7947.826  7947.850  0.500  1.679775  127.047205  23.683612  0.643722
  7953.474  7953.500  0.500  1.675286  126.674734  23.720439  0.648398
  7959.146  7959.170  0.500  1.670976  126.425063  23.775921  0.654374
  7964.835  7964.860  0.500  1.666534  126.120134  23.824186  0.659902
