# XDI/1.0 BlueSky/1.10.0 BMM/2023-1.0-py310-tiled
# Beamline.name: BMM (06BM) -- Beamline for Materials Measurement (NIST)
# Beamline.xray_source: NSLS-II three-pole wiggler
# Beamline.collimation: paraboloid mirror, 5 nm Rh on 30 nm Pt
# Beamline.focusing: not in use
# Beamline.harmonic_rejection: flat mirror, Si stripe, pitch = 7.0 mrad relative to beam
# Beamline.software: Bluesky 1.10.0, Ophyd 1.7.0, DataBroker 2.0.0b13, Python 3.10.8, 2023-1.0-py310-tiled
# Detector.I0: 10 cm N2
# Detector.I1: 25 cm N2
# Detector.I2: 25 cm N2
# Element.symbol: Fe
# Element.edge: K
# Element.reference: Fe
# Element.reference_material: Fe foil
# Facility.name: NSLS-II
# Facility.energy: 3.0
# Facility.current: 399.8
# Facility.mode: top-off
# Facility.GUP: 123456
# Facility.SAF: 301027
# Facility.cycle: 2023-2
# Mono.name: Si(111)
# Mono.d_spacing: 3.1351860
# Mono.encoder_resolution: 0.0000050 deg/ct
# Mono.angle_offset: 16.0754326 deg
# Mono.scan_mode: pseudo channel cut
# Mono.scan_type: step
# Mono.direction: forward in energy
# Sample.name: alpha-FeOOH
# Sample.prep: powder on tape
# Sample.x: 116.329 mm
# Sample.y: 114.126 mm
# Sample.SDD_position: 205.000 mm
# Scan.experimenters: Bruce Ravel
# Scan.edge_energy: 7112.0
# Scan.start_time: 2023-05-05T16:55:27
# Scan.end_time: 2023-05-05T17:03:29
# Scan.transient_id: 74501
# Scan.uid: d1d36b6e-e2c4-453a-b150-3f4e26ce3441
# Scan.plot_hint: ln(I0/It)  --  ln($5/$6)
# Column.1: energy eV
# Column.2: requested_energy eV
# Column.3: measurement_time seconds
# Column.4: xmu 
# Column.5: I0 nA
# Column.6: It nA
# Column.7: Ir nA
# ///////////
# Welcome to BMM
# -----------
# energy  requested_energy  measurement_time  xmu  I0  It  Ir
  6911.997  6912.000  0.500  1.578682  153.815373  31.723935  5.955437
  6922.011  6922.000  0.500  1.569183  153.669460  31.996320  6.049411
  6932.015  6932.000  0.500  1.559538  153.648084  32.301926  6.149982
  6942.007  6942.000  0.500  1.550088  153.681125  32.615652  6.253968
  6952.061  6952.000  0.500  1.540529  153.684426  32.929605  6.356852
  6962.008  6962.000  0.500  1.531045  153.705682  33.247991  6.464407
  6972.008  6972.000  0.500  1.521845  153.714646  33.557266  6.570793
  6982.021  6982.000  0.500  1.512468  153.689096  33.867778  6.674718
  6992.020  6992.000  0.500  1.503175  153.687805  34.183680  6.784498
  7002.017  7002.000  0.500  1.494125  153.647235  34.485342  6.889594
  7012.016  7012.000  0.500  1.484895  153.605921  34.795759  6.998569
  7022.014  7022.000  0.500  1.475865  153.566539  35.102385  7.104746
  7032.018  7032.000  0.500  1.466894  153.531087  35.410511  7.212765
  7042.017  7042.000  0.500  1.458033  153.459876  35.709104  7.319276
  7052.013  7052.000  0.500  1.449037  153.386173  36.014487  7.426122
  7062.008  7062.000  0.500  1.440091  152.594032  36.150466  7.495295
  7072.013  7072.000  0.500  1.431282  153.193863  36.613704  7.628703
  7083.313  7082.000  0.500  1.422271  152.263450  36.720738  7.680371
  7083.976  7084.000  0.500  1.421070  153.098101  36.966371  7.733483
  7085.985  7086.000  0.500  1.419300  153.221814  37.061805  7.754885
  7087.988  7088.000  0.500  1.417764  153.227359  37.120109  7.769081
  7089.983  7090.000  0.500  1.415979  153.225211  37.185919  7.781556
  7091.984  7092.000  0.500  1.414252  153.236533  37.252934  7.793481
  7094.407  7094.000  0.500  1.412328  153.177466  37.310287  7.798259
  7096.016  7096.000  0.500  1.410758  153.139754  37.359701  7.800620
  7097.997  7098.000  0.500  1.409179  153.134062  37.417360  7.798619
  7099.992  7100.000  0.500  1.407598  153.137230  37.477356  7.790314
  7101.997  7102.000  0.500  1.406013  153.098977  37.527399  7.766511
  7102.288  7102.300  0.500  1.405782  153.075366  37.530277  7.762094
  7102.585  7102.600  0.500  1.405535  153.094914  37.544373  7.758177
  7102.884  7102.900  0.500  1.405223  153.084651  37.553550  7.753295
  7103.186  7103.200  0.500  1.404977  153.067053  37.558495  7.746805
  7103.481  7103.500  0.500  1.404761  153.548339  37.684705  7.763225
  7103.785  7103.800  0.500  1.404402  153.578082  37.705549  7.758720
  7104.089  7104.100  0.500  1.404117  153.556744  37.711053  7.750497
  7104.384  7104.400  0.500  1.403970  153.562346  37.717979  7.741064
  7104.681  7104.700  0.500  1.403716  153.557394  37.726346  7.731778
  7104.987  7105.000  0.500  1.403594  153.536635  37.725820  7.718783
  7105.283  7105.300  0.500  1.403534  153.533169  37.727232  7.706397
  7105.589  7105.600  0.500  1.403489  153.530731  37.728330  7.690815
  7105.886  7105.900  0.500  1.402961  153.515639  37.744555  7.677048
  7106.188  7106.200  0.500  1.402590  153.516143  37.758683  7.661953
  7106.492  7106.500  0.500  1.402400  153.519968  37.766821  7.644518
  7106.796  7106.800  0.500  1.402188  153.505968  37.771387  7.623230
  7107.092  7107.100  0.500  1.402132  153.489332  37.769387  7.598144
  7107.387  7107.400  0.500  1.402028  153.479829  37.770981  7.569462
  7107.689  7107.700  0.500  1.401848  153.470302  37.775439  7.537584
  7107.989  7108.000  0.500  1.401578  153.476531  37.787163  7.502876
  7108.289  7108.300  0.500  1.401235  153.463586  37.796961  7.459411
  7108.586  7108.600  0.500  1.400966  153.446642  37.802950  7.408254
  7108.888  7108.900  0.500  1.400600  153.449482  37.817460  7.348330
  7109.184  7109.200  0.500  1.400559  153.449488  37.819040  7.272622
  7109.495  7109.500  0.500  1.400433  153.426095  37.818032  7.169717
  7109.793  7109.800  0.500  1.400277  153.426511  37.824028  7.038093
  7110.095  7110.100  0.500  1.400058  153.401122  37.826043  6.850138
  7110.395  7110.400  0.500  1.399898  153.385169  37.828169  6.587401
  7110.697  7110.700  0.500  1.399757  153.348530  37.824470  6.220705
  7110.995  7111.000  0.500  1.399703  153.320609  37.819614  5.743167
  7111.299  7111.300  0.500  1.399502  153.292491  37.820303  5.191937
  7111.595  7111.600  0.500  1.399613  153.270909  37.810786  4.642286
  7111.889  7111.900  0.500  1.399660  153.235445  37.800249  4.156213
  7112.191  7112.200  0.500  1.400047  153.197035  37.776160  3.770091
  7112.494  7112.500  0.500  1.400725  153.173409  37.744732  3.480412
  7112.790  7112.800  0.500  1.401441  153.145703  37.710889  3.262322
  7113.092  7113.100  0.500  1.401972  153.117615  37.683946  3.082307
  7113.393  7113.400  0.500  1.402253  153.095134  37.667826  2.925683
  7113.691  7113.700  0.500  1.402498  153.085204  37.656153  2.782691
  7114.002  7114.000  0.500  1.403017  153.068783  37.632599  2.650937
  7114.298  7114.300  0.500  1.403505  153.049731  37.609531  2.540047
  7114.596  7114.600  0.500  1.403437  153.037381  37.609080  2.449486
  7114.899  7114.900  0.500  1.402650  153.010756  37.632122  2.381866
  7115.199  7115.200  0.500  1.402048  153.001863  37.652614  2.332653
  7115.504  7115.500  0.500  1.401234  152.983826  37.678811  2.298388
  7115.802  7115.800  0.500  1.400745  152.961910  37.691859  2.274144
  7116.094  7116.100  0.500  1.400726  152.935988  37.686186  2.252276
  7116.391  7116.400  0.500  1.400682  152.914390  37.682511  2.229359
  7116.696  7116.700  0.500  1.400573  152.892693  37.681283  2.196694
  7116.996  7117.000  0.500  1.400474  152.848128  37.674041  2.146475
  7117.295  7117.300  0.500  1.400397  152.826405  37.671568  2.075904
  7117.595  7117.600  0.500  1.400454  152.789219  37.660255  1.982649
  7117.894  7117.900  0.500  1.400515  152.764608  37.651884  1.868925
  7118.201  7118.200  0.500  1.400531  152.739486  37.645086  1.742691
  7118.504  7118.500  0.500  1.400597  152.713035  37.636089  1.614397
  7118.801  7118.800  0.500  1.400791  152.676938  37.619900  1.492673
  7119.099  7119.100  0.500  1.401006  152.644775  37.603896  1.378917
  7119.402  7119.400  0.500  1.401413  152.622406  37.583088  1.271605
  7119.703  7119.700  0.500  1.402106  152.583447  37.547447  1.172246
  7120.002  7120.000  0.500  1.402991  152.557449  37.507864  1.076551
  7120.298  7120.300  0.500  1.404387  152.517528  37.445724  0.985006
  7120.597  7120.600  0.500  1.405977  152.506689  37.383580  0.901145
  7120.896  7120.900  0.500  1.408308  152.455378  37.284001  0.824450
  7121.199  7121.200  0.500  1.410892  152.442032  37.184499  0.757054
  7121.502  7121.500  0.500  1.414030  152.407656  37.059661  0.699542
  7121.797  7121.800  0.500  1.417454  152.383878  36.927212  0.652937
  7122.098  7122.100  0.500  1.421879  152.345378  36.754878  0.609366
  7122.399  7122.400  0.500  1.427073  152.330626  36.560950  0.572297
  7122.705  7122.700  0.500  1.432669  152.279418  36.344699  0.539299
  7123.004  7123.000  0.500  1.438499  152.267306  36.130545  0.510478
  7123.303  7123.300  0.500  1.444520  152.249185  35.909394  0.484849
  7123.602  7123.600  0.500  1.450370  152.214831  35.691867  0.462937
  7123.905  7123.900  0.500  1.455755  152.187570  35.493837  0.443022
  7124.200  7124.200  0.500  1.461408  152.135392  35.281636  0.425150
  7124.499  7124.500  0.500  1.466970  152.129634  35.084613  0.408498
  7124.800  7124.800  0.500  1.472960  152.118497  34.872531  0.392570
  7125.095  7125.100  0.500  1.479265  152.083685  34.645425  0.377895
  7125.397  7125.400  0.500  1.486540  152.039181  34.384247  0.363387
  7125.698  7125.700  0.500  1.494230  151.995530  34.111055  0.349489
  7125.997  7126.000  0.500  1.502253  151.975419  33.833985  0.336361
  7126.299  7126.300  0.500  1.510631  151.953224  33.546793  0.323108
  7126.600  7126.600  0.500  1.519712  151.925448  33.237480  0.309704
  7126.904  7126.900  0.500  1.528892  151.890324  32.926121  0.295745
  7127.203  7127.200  0.500  1.537990  151.867876  32.623097  0.282388
  7127.503  7127.500  0.500  1.547429  151.835986  32.309856  0.268320
  7127.802  7127.800  0.500  1.556373  151.798868  32.014309  0.254497
  7128.099  7128.100  0.500  1.565471  151.779529  31.720337  0.241032
  7128.407  7128.400  0.500  1.575212  151.745335  31.405776  0.227315
  7128.701  7128.700  0.500  1.584911  151.714409  31.096301  0.214103
  7128.994  7129.000  0.500  1.593542  151.699919  30.826133  0.201704
  7129.295  7129.300  0.500  1.601310  151.663197  30.580194  0.190318
  7129.597  7129.600  0.500  1.607375  151.637650  30.390149  0.180192
  7129.901  7129.900  0.500  1.611561  151.595327  30.254772  0.171607
  7130.203  7130.200  0.500  1.613700  151.565176  30.184125  0.165158
  7130.500  7130.500  0.500  1.614611  151.532691  30.150177  0.160479
  7130.802  7130.800  0.500  1.614143  151.496615  30.157089  0.157651
  7131.104  7131.100  0.500  1.612932  151.463642  30.187053  0.156891
  7131.408  7131.400  0.500  1.611055  151.435067  30.238083  0.158317
  7131.701  7131.700  0.500  1.609034  151.411881  30.294618  0.161543
  7132.005  7132.000  0.500  1.606920  151.404573  30.357266  0.166626
  7132.303  7132.300  0.500  1.605164  151.397764  30.409231  0.172760
  7132.603  7132.600  0.500  1.603613  151.377985  30.452463  0.180169
  7132.899  7132.900  0.500  1.602468  151.384614  30.488679  0.187921
  7133.201  7133.200  0.500  1.601529  151.369138  30.514197  0.196630
  7133.494  7133.500  0.500  1.600502  151.373265  30.546385  0.205617
  7133.800  7133.800  0.500  1.599300  151.374778  30.583449  0.214320
  7134.100  7134.100  0.500  1.597810  151.351154  30.624279  0.223340
  7134.396  7134.400  0.500  1.596137  151.350827  30.675481  0.231200
  7134.701  7134.700  0.500  1.594531  151.350644  30.724729  0.238704
  7135.003  7135.000  0.500  1.592403  151.358067  30.791714  0.245314
  7135.305  7135.300  0.500  1.590135  151.349257  30.859817  0.251422
  7135.605  7135.600  0.500  1.588194  151.340393  30.917984  0.256481
  7135.903  7135.900  0.500  1.586418  151.319065  30.968568  0.260428
  7136.201  7136.200  0.500  1.585161  151.317756  31.007239  0.263201
  7136.503  7136.500  0.500  1.583525  151.314418  31.057330  0.265184
  7136.804  7136.800  0.500  1.582676  151.293965  31.079507  0.266128
  7136.996  7137.000  0.500  1.581616  151.295493  31.112782  0.266572
  7137.992  7137.990  0.500  1.576286  151.295521  31.279072  0.262564
  7139.007  7138.990  0.500  1.568628  151.303902  31.521259  0.253221
  7140.023  7140.010  0.500  1.560035  151.286950  31.789736  0.242920
  7141.074  7141.060  0.500  1.552917  151.291809  32.017857  0.236964
  7142.138  7142.120  0.500  1.547670  151.279849  32.183748  0.237250
  7143.227  7143.200  0.500  1.543018  151.287981  32.335552  0.242162
  7144.296  7144.300  0.500  1.539278  151.258760  32.450441  0.246912
  7145.411  7145.420  0.500  1.536572  151.270074  32.540820  0.246143
  7146.557  7146.560  0.500  1.533727  151.263563  32.632121  0.237323
  7147.709  7147.710  0.500  1.530208  151.255473  32.745398  0.223387
  7148.888  7148.890  0.500  1.524574  151.252137  32.929665  0.209718
  7150.080  7150.080  0.500  1.517316  151.252426  33.169600  0.201617
  7151.308  7151.300  0.500  1.509118  151.249834  33.442089  0.197418
  7152.532  7152.530  0.500  1.502298  151.245587  33.669978  0.194566
  7153.779  7153.780  0.500  1.497085  151.234426  33.843466  0.193939
  7155.056  7155.050  0.500  1.492768  151.211578  33.984760  0.196447
  7156.346  7156.340  0.500  1.488852  151.206937  34.117040  0.201068
  7157.650  7157.650  0.500  1.485224  151.186734  34.236475  0.204805
  7158.982  7158.980  0.500  1.482420  151.153691  34.325126  0.206357
  7160.337  7160.330  0.500  1.480821  151.130091  34.374686  0.207344
  7161.705  7161.700  0.500  1.480252  151.099781  34.387336  0.209127
  7163.082  7163.080  0.500  1.481211  151.533280  34.452939  0.212872
  7164.493  7164.490  0.500  1.482642  151.580591  34.414422  0.217081
  7165.909  7165.910  0.500  1.484409  151.546300  34.345895  0.220549
  7167.355  7167.350  0.500  1.486852  151.506350  34.253031  0.222729
  7168.820  7168.810  0.500  1.489677  151.475084  34.149355  0.224717
  7170.294  7170.290  0.500  1.492663  151.457301  34.043549  0.228043
  7171.795  7171.790  0.500  1.495711  151.423145  33.932290  0.234208
  7173.312  7173.310  0.500  1.499073  151.398912  33.812991  0.243853
  7174.858  7174.850  0.500  1.502540  151.348286  33.684703  0.255878
  7176.409  7176.410  0.500  1.504755  151.317293  33.603272  0.270196
  7177.985  7177.980  0.500  1.504896  151.319077  33.598961  0.284677
  7179.594  7179.580  0.500  1.503455  151.296881  33.642470  0.294583
  7181.193  7181.190  0.500  1.501091  151.274626  33.717113  0.297371
  7182.839  7182.830  0.500  1.498799  151.239504  33.786662  0.294978
  7184.487  7184.480  0.500  1.496736  151.223037  33.852732  0.289368
  7186.152  7186.150  0.500  1.495522  151.197108  33.888039  0.278349
  7187.849  7187.840  0.500  1.493584  151.186035  33.951300  0.264369
  7189.559  7189.550  0.500  1.492183  151.161448  33.993359  0.250720
  7191.290  7191.280  0.500  1.490708  149.438708  33.655562  0.233449
  7193.035  7193.030  0.500  1.488964  150.802759  34.022041  0.223776
  7194.803  7194.790  0.500  1.487405  150.959441  34.110540  0.220262
  7196.587  7196.580  0.500  1.485775  150.952198  34.164555  0.225494
  7198.394  7198.380  0.500  1.483851  150.926542  34.224514  0.237547
  7200.215  7200.210  0.500  1.481788  150.886411  34.286069  0.254512
  7202.057  7202.050  0.500  1.478894  150.855728  34.378456  0.275143
  7203.920  7203.910  0.500  1.475942  150.808434  34.469281  0.298794
  7205.801  7205.790  0.500  1.472677  150.770109  34.573231  0.321119
  7207.699  7207.690  0.500  1.469292  150.721287  34.679203  0.331725
  7209.627  7209.610  0.500  1.465991  150.687893  34.786180  0.321607
  7211.551  7211.550  0.500  1.462959  150.634812  34.879513  0.289565
  7213.518  7213.510  0.500  1.459995  150.581128  34.970565  0.245539
  7215.491  7215.480  0.500  1.457262  150.483996  35.043678  0.205547
  7217.496  7217.480  0.500  1.454909  150.502152  35.130449  0.176882
  7219.493  7219.490  0.500  1.452647  150.441831  35.195912  0.161569
  7221.538  7221.520  0.500  1.450705  150.390347  35.252247  0.159422
  7223.582  7223.580  0.500  1.449057  150.338321  35.298182  0.170454
  7225.662  7225.650  0.500  1.447769  150.223664  35.316726  0.192562
  7227.750  7227.740  0.500  1.446607  147.610753  34.742791  0.218955
  7229.860  7229.850  0.500  1.445483  150.410224  35.441504  0.259274
  7231.989  7231.980  0.500  1.444046  150.345552  35.477189  0.299000
  7234.134  7234.120  0.500  1.442684  150.302383  35.515351  0.336191
  7236.303  7236.290  0.500  1.441348  150.262265  35.553334  0.362600
  7238.489  7238.480  0.500  1.440091  150.220381  35.588128  0.374457
  7240.701  7240.680  0.500  1.438676  150.173177  35.627343  0.372115
  7242.908  7242.900  0.500  1.436912  150.152967  35.685415  0.359461
  7245.162  7245.150  0.500  1.434576  147.385894  35.109717  0.336008
  7247.421  7247.410  0.500  1.432308  149.919717  35.794431  0.327527
  7249.699  7249.690  0.500  1.429995  149.934597  35.880862  0.322080
  7252.003  7251.990  0.500  1.427680  149.820688  35.936710  0.326306
  7254.319  7254.310  0.500  1.425641  147.340023  35.413807  0.330853
  7256.664  7256.650  0.500  1.423691  149.936579  36.108257  0.344468
  7259.017  7259.000  0.500  1.422296  149.781586  36.121292  0.341639
  7261.394  7261.380  0.500  1.421171  149.316270  36.049583  0.331230
  7263.780  7263.770  0.500  1.420677  135.823787  32.808285  0.292803
  7266.203  7266.190  0.500  1.418821  149.639966  36.212732  0.316333
  7268.630  7268.620  0.500  1.417448  150.162100  36.389038  0.309275
  7271.085  7271.070  0.500  1.416019  150.111812  36.428877  0.294628
  7273.561  7273.550  0.500  1.414764  148.580439  36.102502  0.276793
  7276.058  7276.040  0.500  1.413447  150.143731  36.530433  0.271331
  7278.564  7278.550  0.500  1.411562  150.091634  36.586673  0.266533
  7281.083  7281.070  0.500  1.409122  150.055698  36.667268  0.259559
  7283.635  7283.620  0.500  1.406625  148.717143  36.431030  0.248453
  7286.200  7286.190  0.500  1.403732  149.700269  36.778134  0.242137
  7288.783  7288.770  0.500  1.400586  149.786202  36.915192  0.239922
  7291.395  7291.380  0.500  1.397363  149.772610  37.030984  0.249622
  7294.009  7294.000  0.500  1.394091  149.749631  37.146647  0.272354
  7296.661  7296.650  0.500  1.391109  149.680344  37.240346  0.302074
  7299.322  7299.310  0.500  1.388410  149.564667  37.312133  0.331394
  7302.008  7301.990  0.500  1.385691  148.268766  37.089554  0.354352
  7304.702  7304.690  0.500  1.382911  149.696629  37.551000  0.378160
  7307.419  7307.410  0.500  1.380341  149.612162  37.626393  0.391882
  7310.163  7310.150  0.500  1.377757  149.534021  37.704041  0.398169
  7312.914  7312.900  0.500  1.375385  149.478162  37.779443  0.398309
  7315.692  7315.680  0.500  1.372817  149.405486  37.858162  0.398821
  7318.481  7318.470  0.500  1.370155  149.377888  37.952070  0.401653
  7321.307  7321.290  0.500  1.367805  149.322043  38.027165  0.404523
  7324.132  7324.120  0.500  1.366087  149.245006  38.072896  0.406470
  7326.976  7326.970  0.500  1.364487  149.194125  38.120837  0.407526
  7329.859  7329.850  0.500  1.362636  149.126395  38.174124  0.410225
  7332.757  7332.740  0.500  1.360853  149.079099  38.230145  0.418438
  7335.663  7335.650  0.500  1.358806  148.995943  38.287104  0.428853
  7338.582  7338.570  0.500  1.356855  147.529510  37.984310  0.430574
  7341.525  7341.520  0.500  1.354593  148.778068  38.392513  0.430826
  7344.502  7344.490  0.500  1.351939  148.778693  38.494732  0.416446
  7347.488  7347.470  0.500  1.349361  148.746384  38.585715  0.394905
  7350.496  7350.480  0.500  1.346354  148.661827  38.679884  0.374789
  7353.506  7353.500  0.500  1.343425  148.611935  38.780331  0.357874
  7356.557  7356.550  0.500  1.340471  148.553484  38.879757  0.343941
  7359.623  7359.610  0.500  1.337507  148.457825  38.970087  0.332252
  7362.705  7362.690  0.500  1.334567  148.396981  39.068799  0.323955
  7365.806  7365.790  0.500  1.331827  148.324206  39.156773  0.321146
  7368.926  7368.910  0.500  1.329228  148.256101  39.240663  0.326133
  7372.058  7372.050  0.500  1.326795  148.196862  39.320535  0.340660
  7375.216  7375.200  0.500  1.324641  148.130721  39.387718  0.367019
  7378.393  7378.380  0.500  1.322560  148.061219  39.451255  0.405717
  7381.584  7381.570  0.500  1.320319  147.990286  39.520813  0.450071
  7384.801  7384.790  0.500  1.318079  147.918298  39.590173  0.484852
  7388.028  7388.020  0.500  1.315625  147.867946  39.673953  0.498862
  7391.277  7391.270  0.500  1.313029  147.806173  39.760452  0.497172
  7394.559  7394.550  0.500  1.310392  147.726534  39.843948  0.489550
  7397.848  7397.840  0.500  1.307766  147.638904  39.925019  0.484141
  7401.157  7401.150  0.500  1.304975  147.560237  40.015300  0.484970
  7404.483  7404.470  0.500  1.302393  147.449442  40.088618  0.487268
  7407.829  7407.820  0.500  1.299713  147.413096  40.186302  0.488726
  7411.196  7411.190  0.500  1.297104  147.321890  40.266324  0.488576
  7414.576  7414.570  0.500  1.294356  147.238752  40.354370  0.488958
  7417.989  7417.980  0.500  1.291427  147.145125  40.447012  0.491864
  7421.413  7421.400  0.500  1.288450  147.060643  40.544311  0.499112
  7424.861  7424.850  0.500  1.285399  146.972569  40.643820  0.511088
  7428.322  7428.310  0.500  1.282328  146.881753  40.743658  0.519896
  7431.800  7431.790  0.500  1.279229  146.791446  40.844965  0.522083
  7435.294  7435.290  0.500  1.276114  146.689058  40.943849  0.520257
  7438.821  7438.810  0.500  1.273244  146.580645  41.031144  0.513437
  7442.354  7442.350  0.500  1.270463  146.430803  41.103354  0.500522
  7445.912  7445.900  0.500  1.267775  142.480048  40.102031  0.474128
  7449.486  7449.480  0.500  1.264867  146.351437  41.311631  0.477810
  7453.093  7453.080  0.500  1.262360  144.901340  41.004961  0.470675
  7456.697  7456.690  0.500  1.259666  146.175846  41.477225  0.476955
  7460.329  7460.320  0.500  1.256782  145.640246  41.444611  0.479874
  7463.990  7463.980  0.500  1.254260  145.951660  41.638081  0.489383
  7467.655  7467.650  0.500  1.251609  141.952550  40.604709  0.489936
  7471.347  7471.340  0.500  1.248916  145.880592  41.840807  0.522041
  7475.055  7475.050  0.500  1.246121  145.753941  41.921492  0.539584
  7478.794  7478.780  0.500  1.243160  145.638350  42.012456  0.553869
  7482.528  7482.520  0.500  1.240361  145.509481  42.092941  0.567104
  7486.305  7486.290  0.500  1.237775  145.404269  42.171421  0.583792
  7490.096  7490.080  0.500  1.234875  145.294582  42.261981  0.601040
  7493.888  7493.880  0.500  1.231857  145.175795  42.355080  0.614366
  7497.722  7497.710  0.500  1.229126  145.097897  42.448111  0.619876
  7501.565  7501.550  0.500  1.225970  144.967099  42.543900  0.618753
  7505.417  7505.410  0.500  1.222686  144.829290  42.643303  0.616966
  7509.304  7509.290  0.500  1.219753  144.682668  42.725246  0.617258
  7513.201  7513.190  0.500  1.217008  144.554910  42.804854  0.620987
  7517.123  7517.110  0.500  1.213982  144.448549  42.902993  0.627276
  7521.061  7521.050  0.500  1.210964  144.366437  43.008207  0.632841
  7525.043  7525.010  0.500  1.207808  144.238609  43.105963  0.636305
  7529.007  7528.980  0.500  1.204835  144.112294  43.196437  0.636925
  7532.999  7532.980  0.500  1.201818  143.989421  43.289992  0.637687
  7537.008  7536.990  0.500  1.199147  143.847588  43.363055  0.641039
  7541.046  7541.030  0.500  1.196334  143.728486  43.449173  0.647211
  7545.102  7545.080  0.500  1.193438  143.581174  43.530543  0.653221
  7549.176  7549.150  0.500  1.190447  143.460468  43.624221  0.658063
  7553.261  7553.240  0.500  1.187597  143.347415  43.714267  0.659626
  7557.368  7557.350  0.500  1.184547  143.752942  43.971827  0.658067
  7561.469  7561.480  0.500  1.181415  143.624797  44.070422  0.654190
  7565.644  7565.630  0.500  1.178359  143.477864  44.160119  0.654381
  7569.804  7569.790  0.500  1.175033  143.349331  44.267544  0.661184
  7574.003  7573.980  0.500  1.171955  143.217139  44.363069  0.673597
  7578.209  7578.180  0.500  1.168910  143.080871  44.455998  0.690320
  7582.429  7582.410  0.500  1.165984  142.933542  44.540348  0.708777
  7586.662  7586.650  0.500  1.163015  142.722910  44.606963  0.722658
  7590.922  7590.910  0.500  1.160037  142.540113  44.682701  0.732252
  7595.202  7595.190  0.500  1.156878  142.356705  44.766395  0.737988
  7599.506  7599.490  0.500  1.153390  142.110327  44.845090  0.741648
  7603.820  7603.810  0.500  1.150229  141.556676  44.811801  0.745222
  7608.167  7608.150  0.500  1.147333  141.358284  44.878766  0.753445
  7612.526  7612.510  0.500  1.143991  141.133796  44.957473  0.764436
  7616.905  7616.890  0.500  1.140844  141.079975  45.081989  0.773969
  7621.297  7621.280  0.500  1.137774  141.168241  45.248900  0.778762
  7625.711  7625.700  0.500  1.134681  141.193134  45.397077  0.781926
  7630.141  7630.130  0.500  1.131459  141.085438  45.508826  0.786741
  7634.596  7634.580  0.500  1.128283  140.916586  45.598992  0.795616
  7639.071  7639.050  0.500  1.125092  140.723105  45.681879  0.807910
  7643.556  7643.540  0.500  1.122059  140.663829  45.801370  0.821043
  7648.062  7648.050  0.500  1.119073  140.519804  45.891313  0.831713
  7652.596  7652.580  0.500  1.116044  140.363436  45.979293  0.839831
  7657.146  7657.130  0.500  1.112705  140.178045  46.072133  0.846001
  7661.713  7661.700  0.500  1.109550  139.941226  46.139654  0.850278
  7666.294  7666.280  0.500  1.106383  139.822302  46.246655  0.852358
  7670.901  7670.890  0.500  1.103406  139.617915  46.316740  0.853501
  7675.523  7675.510  0.500  1.100305  139.409668  46.391313  0.854283
  7680.171  7680.160  0.500  1.097075  139.217055  46.477095  0.856412
  7684.831  7684.820  0.500  1.093770  138.952854  46.542461  0.860410
  7689.516  7689.500  0.500  1.090539  139.102723  46.743407  0.871043
  7694.207  7694.200  0.500  1.087307  138.811788  46.796654  0.880978
  7698.932  7698.920  0.500  1.084166  138.627871  46.881672  0.891777
  7703.670  7703.660  0.500  1.081017  138.387573  46.948033  0.901883
  7708.417  7708.410  0.500  1.078025  138.259321  47.045060  0.912732
  7713.193  7713.190  0.500  1.074690  137.986842  47.109216  0.924481
  7717.995  7717.990  0.500  1.071439  137.754217  47.182940  0.936207
  7722.811  7722.800  0.500  1.068093  137.623498  47.296150  0.948172
  7727.639  7727.630  0.500  1.065089  137.398591  47.360913  0.956363
  7732.506  7732.490  0.500  1.061671  137.194569  47.452487  0.963998
  7737.374  7737.360  0.500  1.058366  136.967219  47.530675  0.971530
  7742.261  7742.250  0.500  1.055204  137.029973  47.703060  0.981935
  7747.173  7747.160  0.500  1.051739  136.741391  47.767847  0.990041
  7752.106  7752.090  0.500  1.048566  136.489277  47.831280  0.997296
  7757.046  7757.030  0.500  1.045287  136.297726  47.921062  1.005600
  7762.023  7762.000  0.500  1.042005  136.091521  48.005856  1.015894
  7767.000  7766.990  0.500  1.038803  135.903206  48.093161  1.027713
  7772.008  7771.990  0.500  1.035691  135.697688  48.170110  1.039352
  7777.036  7777.020  0.500  1.032416  135.500698  48.257966  1.050703
  7782.071  7782.060  0.500  1.028976  135.311928  48.356772  1.060688
  7787.123  7787.120  0.500  1.025916  135.147953  48.446221  1.070801
  7792.203  7792.200  0.500  1.022609  134.937569  48.531032  1.080123
  7797.302  7797.300  0.500  1.019244  134.730877  48.620004  1.088167
  7802.422  7802.420  0.500  1.015905  134.448830  48.680493  1.094918
  7807.564  7807.560  0.500  1.012742  134.265377  48.768074  1.101945
  7812.720  7812.720  0.500  1.009449  134.074564  48.859392  1.109913
  7817.897  7817.900  0.500  1.006047  133.872724  48.952104  1.117641
  7823.094  7823.090  0.500  1.002749  133.650739  49.032377  1.127052
  7828.311  7828.310  0.500  0.999547  133.462335  49.120292  1.135583
  7833.546  7833.540  0.500  0.996240  133.259900  49.208242  1.144147
  7838.794  7838.790  0.500  0.992908  132.713431  49.170024  1.151524
  7844.064  7844.060  0.500  0.989788  132.812882  49.360632  1.163628
  7849.358  7849.350  0.500  0.986362  132.530233  49.424613  1.174010
  7854.666  7854.660  0.500  0.983027  131.415521  49.172649  1.176321
  7860.001  7859.990  0.500  0.979676  132.096381  49.593285  1.196282
  7865.351  7865.340  0.500  0.976339  131.915329  49.690870  1.208993
  7870.725  7870.710  0.500  0.973021  131.724287  49.783801  1.221821
  7876.098  7876.090  0.500  0.969727  131.494203  49.860845  1.234536
  7881.516  7881.500  0.500  0.966362  131.218768  49.924098  1.246631
  7886.929  7886.920  0.500  0.963087  131.016943  50.010848  1.258691
  7892.386  7892.370  0.500  0.959768  130.760369  50.078855  1.270178
  7897.843  7897.830  0.500  0.956697  130.449952  50.113587  1.280495
  7903.324  7903.310  0.500  0.953310  130.268538  50.213692  1.293515
  7908.829  7908.810  0.500  0.950221  130.055773  50.286792  1.305247
  7914.347  7914.330  0.500  0.946860  129.784015  50.350667  1.316313
  7919.884  7919.870  0.500  0.943241  129.543510  50.439546  1.328306
  7925.432  7925.420  0.500  0.939837  129.283744  50.510065  1.339364
  7931.014  7931.000  0.500  0.936731  128.921578  50.525236  1.349874
  7936.618  7936.600  0.500  0.933300  128.565893  50.559025  1.358202
  7942.228  7942.210  0.500  0.929864  128.610551  50.750691  1.371306
  7947.862  7947.850  0.500  0.926508  128.292445  50.795319  1.380355
  7953.517  7953.500  0.500  0.923068  127.966928  50.841037  1.389802
  7959.189  7959.170  0.500  0.919814  127.671005  50.888766  1.401089
  7964.897  7964.860  0.500  0.916432  127.359912  50.936747  1.411249
