# XDI/1.0 BlueSky/1.5.3
# Beamline.name: 6BM
# Beamline.xray_source: NSLS-II three-pole wiggler
# Beamline.collimation: paraboloid mirror, 5 nm Rh on 30 nm Pt
# Beamline.focusing: not in use
# Beamline.harmonic_rejection: flat mirror, Si stripe, pitch = 7.0 mrad relative to beam
# Detector.i0: 10 cm N2
# Detector.i1: 25 cm N2
# Detector.i2: 25 cm N2
# Element.symbol: Fe
# Element.edge: K
# Facility.name: NSLS-II
# Facility.energy: 3.0
# Facility.current: 400.8
# Facility.mode: top-off
# Facility.gup: 301027
# Facility.saf: 304793
# Facility.cycle: 2020-1
# Mono.name: Si(111)
# Mono.d_spacing: 3.1353241
# Mono.encoder_resolution: 0.0000050 deg/ct
# Mono.angle_offset: 16.0581090 deg
# Mono.scan_mode: fixed exit
# Mono.scan_type: step
# Mono.direction: forward in energy
# Sample.name: MnAl2Si2O6(OH)4
# Sample.prep: Powder in polyethylene glycol pellet
# Sample.x_position: -122.297 mm
# Sample.y_position: 119.848 mm
# Scan.experimenters: Bruce Ravel
# Scan.edge_energy: 7112.0
# Scan.start_time: 2020-01-15T00:12:55
# Scan.end_time: 2020-01-15T00:51:07
# Scan.transient_id: 19551
# Scan.uid: a91eaf3c-ea57-4025-bd6f-3b2d05122a4d
# Scan.plot_hint: ln(I0/It)  --  ln($5/$6)
# Scan.sequence: merge of 2 scans
# Column.1: energy eV
# Column.2: requested_energy eV
# Column.3: measurement_time seconds
# Column.4: mutrans
# Column.5: i0
# Column.6: itrans
# Column.7: irefer
# /////
#  Schlaggenwald, Bohemia, CZ
# -----
# energy   requested_energy   measurement_time   mutrans   i0   itrans   irefer
6911.999000 6912.000000 0.500000 3.238033 71.301402 2.797989 0.783005
6922.006000 6922.000000 0.500000 3.222288 71.075429 2.833372 0.795784
6932.022000 6932.000000 0.500000 3.207798 70.947772 2.869572 0.808504
6942.018000 6942.000000 0.500000 3.192169 70.793158 2.908393 0.823574
6952.018000 6952.000000 0.500000 3.175262 70.628882 2.951101 0.839907
6962.017000 6962.000000 0.500000 3.158834 70.515062 2.995149 0.855410
6972.015000 6972.000000 0.500000 3.143782 70.351425 3.033488 0.870522
6982.014000 6982.000000 0.500000 3.128813 70.238294 3.074330 0.885390
6992.014000 6992.000000 0.500000 3.113863 70.090564 3.114052 0.901296
7002.009000 7002.000000 0.500000 3.099195 69.947126 3.153598 0.915364
7012.017000 7012.000000 0.500000 3.084894 69.798670 3.192235 0.931106
7022.013000 7022.000000 0.500000 3.070828 69.692732 3.232538 0.946914
7032.016000 7032.000000 0.500000 3.055948 69.569459 3.275215 0.964330
7042.013000 7042.000000 0.500000 3.041237 69.396201 3.315477 0.977982
7052.016000 7052.000000 0.500000 3.026778 69.235735 3.355984 0.994539
7062.009000 7062.000000 0.500000 3.012112 68.462086 3.367487 0.999316
7072.010000 7072.000000 0.500000 2.998069 68.992118 3.441550 1.024889
7082.007000 7082.000000 0.500000 2.983887 68.827119 3.482362 1.037764
7084.000000 7084.000000 0.500000 2.981200 68.856186 3.493180 1.041166
7086.008000 7086.000000 0.500000 2.978198 68.867030 3.504275 1.043102
7088.007000 7088.000000 0.500000 2.975510 68.821171 3.511360 1.046465
7090.001000 7090.000000 0.500000 2.972580 68.827527 3.521970 1.048692
7092.008000 7092.000000 0.500000 2.969810 68.865480 3.533710 1.051345
7094.004000 7094.000000 0.500000 2.967122 68.886416 3.544292 1.052852
7095.999000 7096.000000 0.500000 2.964372 68.809649 3.550078 1.052179
7098.004000 7098.000000 0.500000 2.961780 68.755784 3.556524 1.052092
7099.999000 7100.000000 0.500000 2.958750 68.752726 3.567146 1.051074
7101.998000 7102.000000 0.500000 2.956266 68.722019 3.574428 1.048843
7102.083000 7102.100000 0.500000 2.956371 68.750129 3.575538 1.048943
7102.182000 7102.200000 0.500000 2.955761 68.788528 3.579697 1.050663
7102.280000 7102.300000 0.500000 2.955904 68.760571 3.577728 1.049380
7102.381000 7102.400000 0.500000 2.955710 68.728155 3.576738 1.048471
7102.481000 7102.500000 0.500000 2.955535 68.795611 3.580874 1.048594
7102.582000 7102.600000 0.500000 2.955407 68.820362 3.582635 1.049428
7102.682000 7102.700000 0.500000 2.955084 68.772799 3.581302 1.048882
7102.783000 7102.800000 0.500000 2.955190 68.788618 3.581750 1.048952
7102.883000 7102.900000 0.500000 2.954916 68.757018 3.581072 1.047697
7102.984000 7103.000000 0.500000 2.955082 68.777474 3.581552 1.046902
7103.084000 7103.100000 0.500000 2.954842 68.798249 3.583480 1.048065
7103.187000 7103.200000 0.500000 2.954636 68.810320 3.584864 1.048216
7103.285000 7103.300000 0.500000 2.954452 68.813613 3.585685 1.048154
7103.384000 7103.400000 0.500000 2.954449 68.786934 3.584307 1.046990
7103.489000 7103.500000 0.500000 2.953971 68.746370 3.583894 1.046875
7103.589000 7103.600000 0.500000 2.954252 68.759070 3.583572 1.045671
7103.687000 7103.700000 0.500000 2.953988 68.752600 3.584148 1.044596
7103.788000 7103.800000 0.500000 2.953871 68.768946 3.585430 1.045084
7103.893000 7103.900000 0.500000 2.953662 68.750678 3.585245 1.044705
7103.991000 7104.000000 0.500000 2.953568 68.739360 3.584989 1.044320
7104.090000 7104.100000 0.500000 2.953450 68.755326 3.586233 1.043794
7104.190000 7104.200000 0.500000 2.953282 68.751992 3.586663 1.043662
7104.297000 7104.300000 0.500000 2.953307 68.745786 3.586280 1.042912
7104.393000 7104.400000 0.500000 2.952838 68.746135 3.587960 1.042499
7104.492000 7104.500000 0.500000 2.952945 68.739960 3.587267 1.042325
7104.595000 7104.600000 0.500000 2.952755 68.719274 3.586851 1.041100
7104.697000 7104.700000 0.500000 2.952754 68.730851 3.587460 1.041646
7104.798000 7104.800000 0.500000 2.952456 68.748950 3.589477 1.041552
7104.894000 7104.900000 0.500000 2.952237 68.772468 3.591478 1.041994
7104.997000 7105.000000 0.500000 2.952173 68.745103 3.590288 1.040507
7105.100000 7105.100000 0.500000 2.952299 68.699782 3.587491 1.038894
7105.198000 7105.200000 0.500000 2.952097 68.713128 3.588892 1.038679
7105.294000 7105.300000 0.500000 2.951793 68.731829 3.590951 1.038131
7105.397000 7105.400000 0.500000 2.951695 68.721750 3.590793 1.037523
7105.500000 7105.500000 0.500000 2.951645 68.714264 3.590587 1.036639
7105.594000 7105.600000 0.500000 2.951537 68.701173 3.590277 1.037007
7105.695000 7105.700000 0.500000 2.951372 68.681200 3.589827 1.035844
7105.797000 7105.800000 0.500000 2.951308 68.675926 3.589787 1.035133
7105.900000 7105.900000 0.500000 2.951170 68.685007 3.590760 1.033737
7105.992000 7106.000000 0.500000 2.951070 68.706319 3.592222 1.032853
7106.095000 7106.100000 0.500000 2.951065 68.680090 3.590873 1.032487
7106.196000 7106.200000 0.500000 2.950947 68.659315 3.590212 1.031345
7106.296000 7106.300000 0.500000 2.950740 68.662103 3.591093 1.030350
7106.390000 7106.400000 0.500000 2.950357 68.710938 3.595010 1.030395
7106.493000 7106.500000 0.500000 2.950536 68.707777 3.594229 1.029279
7106.594000 7106.600000 0.500000 2.950264 68.639948 3.591618 1.026674
7106.692000 7106.700000 0.500000 2.950338 68.642091 3.591489 1.025826
7106.791000 7106.800000 0.500000 2.950116 68.639251 3.592103 1.025390
7106.896000 7106.900000 0.500000 2.949935 68.649810 3.593346 1.024368
7106.996000 7107.000000 0.500000 2.949803 68.624335 3.592491 1.023100
7107.095000 7107.100000 0.500000 2.949775 68.672640 3.595114 1.022734
7107.195000 7107.200000 0.500000 2.949386 68.672772 3.596471 1.021322
7107.300000 7107.300000 0.500000 2.949616 68.644200 3.594223 1.018905
7107.395000 7107.400000 0.500000 2.949482 68.606063 3.592681 1.017039
7107.493000 7107.500000 0.500000 2.949235 68.616139 3.594112 1.016351
7107.598000 7107.600000 0.500000 2.949124 68.650943 3.596332 1.014405
7107.699000 7107.700000 0.500000 2.948965 68.614933 3.594990 1.012936
7107.797000 7107.800000 0.500000 2.948774 68.596789 3.594743 1.011142
7107.900000 7107.900000 0.500000 2.948785 68.603786 3.595073 1.008943
7108.003000 7108.000000 0.500000 2.948605 68.604532 3.595767 1.008312
7108.103000 7108.100000 0.500000 2.948382 68.729716 3.603125 1.006221
7108.200000 7108.200000 0.500000 2.948110 68.756034 3.605472 1.006160
7108.301000 7108.300000 0.500000 2.948486 68.744768 3.603535 1.003338
7108.401000 7108.400000 0.500000 2.948315 68.774082 3.605691 1.000686
7108.498000 7108.500000 0.500000 2.948105 68.781798 3.606850 0.998558
7108.598000 7108.600000 0.500000 2.947966 68.752900 3.605829 0.995066
7108.705000 7108.700000 0.500000 2.948092 68.889082 3.612536 0.993647
7108.802000 7108.800000 0.500000 2.947844 68.881020 3.612993 0.991027
7108.900000 7108.900000 0.500000 2.947811 68.887831 3.613487 0.987662
7109.005000 7109.000000 0.500000 2.947663 68.918353 3.615597 0.983523
7109.104000 7109.100000 0.500000 2.947822 68.931952 3.615858 0.979995
7109.200000 7109.200000 0.500000 2.947268 68.904028 3.616291 0.975322
7109.303000 7109.300000 0.500000 2.947106 68.862068 3.614675 0.970136
7109.402000 7109.400000 0.500000 2.947043 68.862407 3.614918 0.963735
7109.498000 7109.500000 0.500000 2.947108 68.874625 3.615322 0.958874
7109.597000 7109.600000 0.500000 2.947043 68.859189 3.614746 0.953358
7109.700000 7109.700000 0.500000 2.947060 68.888768 3.616240 0.944991
7109.800000 7109.800000 0.500000 2.947024 68.882899 3.616125 0.937826
7109.899000 7109.900000 0.500000 2.946580 68.853498 3.616125 0.928546
7110.000000 7110.000000 0.500000 2.946753 68.838353 3.614700 0.918229
7110.098000 7110.100000 0.500000 2.946719 68.796161 3.612614 0.907076
7110.197000 7110.200000 0.500000 2.946788 68.848664 3.615119 0.894723
7110.298000 7110.300000 0.500000 2.946664 68.841968 3.615202 0.878949
7110.394000 7110.400000 0.500000 2.946971 68.816663 3.612820 0.862318
7110.497000 7110.500000 0.500000 2.946581 68.805926 3.613586 0.844355
7110.598000 7110.600000 0.500000 2.946746 68.828805 3.614223 0.821599
7110.694000 7110.700000 0.500000 2.946909 68.811704 3.612780 0.801293
7110.797000 7110.800000 0.500000 2.946978 68.769660 3.610282 0.775824
7110.902000 7110.900000 0.500000 2.947051 68.813991 3.612338 0.750335
7110.996000 7111.000000 0.500000 2.947159 68.821229 3.612319 0.725764
7111.097000 7111.100000 0.500000 2.947148 68.798598 3.611186 0.698110
7111.196000 7111.200000 0.500000 2.947334 68.773513 3.609204 0.671944
7111.299000 7111.300000 0.500000 2.947497 68.742009 3.606971 0.646268
7111.402000 7111.400000 0.500000 2.947420 68.778180 3.609131 0.622916
7111.498000 7111.500000 0.500000 2.947410 68.767275 3.608594 0.600672
7111.603000 7111.600000 0.500000 2.947572 68.718375 3.605434 0.578117
7111.704000 7111.700000 0.500000 2.947649 68.699468 3.604190 0.558705
7111.798000 7111.800000 0.500000 2.947567 68.717479 3.605420 0.541217
7111.903000 7111.900000 0.500000 2.947712 68.723641 3.605230 0.525141
7112.000000 7112.000000 0.500000 2.947609 68.712187 3.605010 0.511144
7112.105000 7112.100000 0.500000 2.947183 68.685789 3.605143 0.496204
7112.204000 7112.200000 0.500000 2.947298 68.695536 3.605258 0.484199
7112.302000 7112.300000 0.500000 2.947030 68.681751 3.605528 0.473408
7112.401000 7112.400000 0.500000 2.946579 68.658386 3.605873 0.463724
7112.499000 7112.500000 0.500000 2.946574 68.631280 3.604469 0.453164
7112.605000 7112.600000 0.500000 2.946357 68.621123 3.604726 0.444680
7112.697000 7112.700000 0.500000 2.946141 68.597596 3.604265 0.437184
7112.798000 7112.800000 0.500000 2.945869 68.600272 3.605368 0.427891
7112.898000 7112.900000 0.500000 2.945777 68.638898 3.607735 0.420484
7112.995000 7113.000000 0.500000 2.945568 68.646129 3.608863 0.413756
7113.096000 7113.100000 0.500000 2.945314 68.595829 3.607125 0.407176
7113.197000 7113.200000 0.500000 2.945368 68.543529 3.604221 0.401210
7113.297000 7113.300000 0.500000 2.944921 68.541486 3.605660 0.394713
7113.398000 7113.400000 0.500000 2.944850 68.566465 3.607281 0.387607
7113.499000 7113.500000 0.500000 2.944754 68.568298 3.607717 0.382506
7113.600000 7113.600000 0.500000 2.944789 68.484655 3.603204 0.375076
7113.699000 7113.700000 0.500000 2.944560 68.470660 3.603279 0.369761
7113.797000 7113.800000 0.500000 2.944673 68.473609 3.603029 0.364640
7113.896000 7113.900000 0.500000 2.944184 68.527007 3.607583 0.360684
7114.001000 7114.000000 0.500000 2.944233 68.517281 3.606934 0.355315
7114.100000 7114.100000 0.500000 2.944053 68.497229 3.606536 0.350739
7114.201000 7114.200000 0.500000 2.943574 68.468039 3.606714 0.346507
7114.304000 7114.300000 0.500000 2.943605 68.465744 3.606491 0.342691
7114.398000 7114.400000 0.500000 2.943291 68.468280 3.607730 0.339727
7114.503000 7114.500000 0.500000 2.943477 68.461616 3.606751 0.335382
7114.602000 7114.600000 0.500000 2.943210 68.459632 3.607577 0.332342
7114.705000 7114.700000 0.500000 2.942958 68.450738 3.608067 0.329590
7114.804000 7114.800000 0.500000 2.942692 68.432751 3.608042 0.327242
7114.902000 7114.900000 0.500000 2.942755 68.431447 3.607747 0.324768
7115.001000 7115.000000 0.500000 2.942585 68.433353 3.608452 0.323595
7115.098000 7115.100000 0.500000 2.942406 68.443951 3.609644 0.321759
7115.201000 7115.200000 0.500000 2.942654 68.418493 3.607422 0.319299
7115.297000 7115.300000 0.500000 2.942293 68.450858 3.610377 0.318033
7115.403000 7115.400000 0.500000 2.942449 68.424576 3.608480 0.316770
7115.495000 7115.500000 0.500000 2.942404 68.443704 3.609625 0.315541
7115.600000 7115.600000 0.500000 2.942103 68.404421 3.608660 0.314231
7115.694000 7115.700000 0.500000 2.942258 68.367986 3.606220 0.313511
7115.798000 7115.800000 0.500000 2.942274 68.410988 3.608394 0.312725
7115.896000 7115.900000 0.500000 2.942241 68.441180 3.610094 0.312081
7115.997000 7116.000000 0.500000 2.942283 68.443002 3.610053 0.310542
7116.100000 7116.100000 0.500000 2.942403 68.434572 3.609170 0.309642
7116.197000 7116.200000 0.500000 2.942244 68.419580 3.608948 0.307983
7116.304000 7116.300000 0.500000 2.942487 68.437564 3.609014 0.307279
7116.399000 7116.400000 0.500000 2.942656 68.394383 3.606131 0.305814
7116.502000 7116.500000 0.500000 2.942598 68.382894 3.605743 0.303995
7116.601000 7116.600000 0.500000 2.942556 68.401850 3.606856 0.302133
7116.704000 7116.700000 0.500000 2.942862 68.392874 3.605233 0.299452
7116.800000 7116.800000 0.500000 2.943177 68.371760 3.603060 0.297437
7116.901000 7116.900000 0.500000 2.943307 68.336325 3.600698 0.293459
7117.004000 7117.000000 0.500000 2.943652 68.341370 3.599740 0.289854
7117.103000 7117.100000 0.500000 2.943714 68.356252 3.600288 0.286232
7117.204000 7117.200000 0.500000 2.944295 68.369722 3.598846 0.281995
7117.301000 7117.300000 0.500000 2.944860 68.322568 3.594386 0.277240
7117.402000 7117.400000 0.500000 2.945476 68.316159 3.591795 0.272456
7117.498000 7117.500000 0.500000 2.945911 68.337534 3.591427 0.268088
7117.601000 7117.600000 0.500000 2.946363 68.333121 3.589573 0.261979
7117.698000 7117.700000 0.500000 2.947021 68.273819 3.584093 0.255975
7117.799000 7117.800000 0.500000 2.947909 68.257010 3.580033 0.250443
7117.896000 7117.900000 0.500000 2.948444 68.287060 3.579769 0.246349
7117.997000 7118.000000 0.500000 2.949248 68.282725 3.576609 0.239610
7118.098000 7118.100000 0.500000 2.950190 68.305250 3.574478 0.235030
7118.199000 7118.200000 0.500000 2.950970 68.261944 3.569388 0.229713
7118.297000 7118.300000 0.500000 2.952435 68.269492 3.564649 0.222387
7118.394000 7118.400000 0.500000 2.953492 68.272871 3.561096 0.217303
7118.499000 7118.500000 0.500000 2.954784 68.269578 3.556203 0.212017
7118.596000 7118.600000 0.500000 2.956122 68.264095 3.551224 0.204939
7118.699000 7118.700000 0.500000 2.957256 68.204848 3.544083 0.200820
7118.800000 7118.800000 0.500000 2.958587 68.265084 3.542476 0.195286
7118.903000 7118.900000 0.500000 2.960414 68.234876 3.534271 0.189126
7118.998000 7119.000000 0.500000 2.962179 68.182153 3.525546 0.184134
7119.103000 7119.100000 0.500000 2.964077 68.149142 3.516916 0.177948
7119.202000 7119.200000 0.500000 2.965889 68.157390 3.511013 0.173871
7119.305000 7119.300000 0.500000 2.968310 68.179682 3.503686 0.168149
7119.402000 7119.400000 0.500000 2.970413 68.175897 3.495971 0.163547
7119.501000 7119.500000 0.500000 2.972843 68.139352 3.485664 0.158783
7119.604000 7119.600000 0.500000 2.975200 68.140359 3.477431 0.154588
7119.696000 7119.700000 0.500000 2.977724 68.135341 3.468568 0.149551
7119.806000 7119.800000 0.500000 2.980750 68.147459 3.458286 0.144743
7119.900000 7119.900000 0.500000 2.983523 68.110785 3.447510 0.140711
7119.999000 7120.000000 0.500000 2.986594 68.098773 3.436079 0.135909
7120.098000 7120.100000 0.500000 2.989698 68.114545 3.426236 0.132111
7120.199000 7120.200000 0.500000 2.992860 68.112725 3.415429 0.127790
7120.296000 7120.300000 0.500000 2.996092 68.102351 3.403885 0.123806
7120.397000 7120.400000 0.500000 2.999391 68.089652 3.391911 0.120701
7120.498000 7120.500000 0.500000 3.003221 68.064634 3.377830 0.116262
7120.597000 7120.600000 0.500000 3.006501 68.024582 3.364794 0.113041
7120.698000 7120.700000 0.500000 3.009971 68.038018 3.353798 0.109336
7120.795000 7120.800000 0.500000 3.013441 68.060486 3.343515 0.106571
7120.900000 7120.900000 0.500000 3.017032 68.011649 3.328911 0.102985
7120.999000 7121.000000 0.500000 3.020171 67.982686 3.317063 0.100296
7121.102000 7121.100000 0.500000 3.023624 67.987219 3.305956 0.096782
7121.201000 7121.200000 0.500000 3.026703 68.138127 3.303007 0.095254
7121.302000 7121.300000 0.500000 3.029529 68.162337 3.294654 0.091986
7121.401000 7121.400000 0.500000 3.032509 68.159622 3.285025 0.089939
7121.500000 7121.500000 0.500000 3.035687 68.141259 3.273827 0.087707
7121.603000 7121.600000 0.500000 3.038106 68.123304 3.264767 0.086042
7121.700000 7121.700000 0.500000 3.040408 68.186396 3.260602 0.083797
7121.803000 7121.800000 0.500000 3.043061 68.220096 3.253473 0.081872
7121.900000 7121.900000 0.500000 3.045017 68.227135 3.247528 0.080432
7122.005000 7122.000000 0.500000 3.047231 68.195347 3.238937 0.078731
7122.098000 7122.100000 0.500000 3.049083 68.226406 3.234159 0.077391
7122.199000 7122.200000 0.500000 3.051251 68.184643 3.225186 0.075731
7122.302000 7122.300000 0.500000 3.053107 68.158975 3.217590 0.074260
7122.399000 7122.400000 0.500000 3.055111 68.178474 3.212784 0.073244
7122.502000 7122.500000 0.500000 3.057276 68.130365 3.203444 0.071374
7122.595000 7122.600000 0.500000 3.058790 68.097786 3.197335 0.071200
7122.698000 7122.700000 0.500000 3.060568 68.081146 3.190668 0.069558
7122.799000 7122.800000 0.500000 3.062371 68.069458 3.184437 0.068096
7122.896000 7122.900000 0.500000 3.064238 68.020648 3.176223 0.066540
7122.997000 7123.000000 0.500000 3.066223 67.989891 3.168449 0.065616
7123.096000 7123.100000 0.500000 3.067867 67.985408 3.163050 0.064720
7123.197000 7123.200000 0.500000 3.069966 67.952881 3.154985 0.063262
7123.294000 7123.300000 0.500000 3.071786 67.939437 3.148674 0.063025
7123.399000 7123.400000 0.500000 3.073566 67.868553 3.139519 0.061508
7123.498000 7123.500000 0.500000 3.075615 67.841196 3.132090 0.060933
7123.597000 7123.600000 0.500000 3.077508 67.841758 3.126097 0.059941
7123.698000 7123.700000 0.500000 3.079563 67.811974 3.118248 0.059113
7123.799000 7123.800000 0.500000 3.081689 67.782184 3.110186 0.058012
7123.903000 7123.900000 0.500000 3.083885 67.739768 3.101340 0.057133
7124.002000 7124.000000 0.500000 3.085445 67.688751 3.094077 0.057077
7124.101000 7124.100000 0.500000 3.087899 67.639777 3.084284 0.055629
7124.204000 7124.200000 0.500000 3.090361 67.662171 3.077651 0.054946
7124.301000 7124.300000 0.500000 3.092513 67.648237 3.070540 0.054237
7124.406000 7124.400000 0.500000 3.094950 67.615866 3.061329 0.053647
7124.503000 7124.500000 0.500000 3.097031 67.566397 3.052778 0.052824
7124.602000 7124.600000 0.500000 3.099634 67.539410 3.043707 0.052125
7124.703000 7124.700000 0.500000 3.101904 67.507250 3.035291 0.051445
7124.800000 7124.800000 0.500000 3.104278 67.449895 3.025592 0.051181
7124.906000 7124.900000 0.500000 3.106479 67.469547 3.019528 0.050589
7125.000000 7125.000000 0.500000 3.108695 67.422826 3.011145 0.049631
7125.102000 7125.100000 0.500000 3.110958 67.381359 3.002300 0.049163
7125.203000 7125.200000 0.500000 3.113106 67.307943 2.992512 0.047923
7125.297000 7125.300000 0.500000 3.115207 67.268003 2.984635 0.047441
7125.399000 7125.400000 0.500000 3.117348 67.261958 2.978045 0.047354
7125.498000 7125.500000 0.500000 3.119203 67.240182 2.971553 0.046288
7125.597000 7125.600000 0.500000 3.120496 67.189449 2.965470 0.046367
7125.696000 7125.700000 0.500000 3.122402 67.128492 2.957202 0.045409
7125.797000 7125.800000 0.500000 3.123749 67.094129 2.951671 0.045168
7125.898000 7125.900000 0.500000 3.125158 67.085852 2.947080 0.044535
7125.999000 7126.000000 0.500000 3.126300 67.054528 2.942343 0.043509
7126.094000 7126.100000 0.500000 3.127419 66.971592 2.935554 0.043596
7126.202000 7126.200000 0.500000 3.128464 66.915866 2.929912 0.043022
7126.299000 7126.300000 0.500000 3.129203 66.859823 2.925294 0.042184
7126.396000 7126.400000 0.500000 3.130152 66.843677 2.921910 0.041785
7126.501000 7126.500000 0.500000 3.130489 66.821179 2.919863 0.040956
7126.600000 7126.600000 0.500000 3.130907 66.759340 2.915944 0.040615
7126.699000 7126.700000 0.500000 3.131450 66.687875 2.911229 0.040162
7126.803000 7126.800000 0.500000 3.132045 66.631017 2.907000 0.039328
7126.900000 7126.900000 0.500000 3.132330 66.610346 2.905307 0.039450
7127.001000 7127.000000 0.500000 3.132066 66.542015 2.903056 0.038345
7127.106000 7127.100000 0.500000 3.132157 66.471931 2.899743 0.038507
7127.199000 7127.200000 0.500000 3.132279 66.400209 2.896265 0.038037
7127.300000 7127.300000 0.500000 3.131866 66.338348 2.894729 0.037717
7127.404000 7127.400000 0.500000 3.131995 66.293745 2.892443 0.037032
7127.500000 7127.500000 0.500000 3.131327 66.301905 2.894730 0.036778
7127.604000 7127.600000 0.500000 3.130651 66.253586 2.894575 0.036483
7127.703000 7127.700000 0.500000 3.130147 66.202652 2.893789 0.035380
7127.798000 7127.800000 0.500000 3.129300 66.086139 2.891104 0.034436
7127.899000 7127.900000 0.500000 3.128258 66.085153 2.894134 0.034228
7128.002000 7128.000000 0.500000 3.127328 66.031347 2.894467 0.033713
7128.099000 7128.100000 0.500000 3.126206 66.030222 2.897621 0.033133
7128.203000 7128.200000 0.500000 3.125166 66.023530 2.900470 0.033015
7128.298000 7128.300000 0.500000 3.123944 65.979269 2.901958 0.031630
7128.395000 7128.400000 0.500000 3.122841 65.895084 2.901343 0.032620
7128.500000 7128.500000 0.500000 3.121480 65.839631 2.902991 0.031750
7128.597000 7128.600000 0.500000 3.120159 65.816888 2.905866 0.031054
7128.694000 7128.700000 0.500000 3.118785 65.811460 2.909439 0.030719
7128.800000 7128.800000 0.500000 3.117488 65.723719 2.909440 0.029942
7128.899000 7128.900000 0.500000 3.115912 65.763082 2.915808 0.028773
7128.994000 7129.000000 0.500000 3.114886 65.720471 2.916884 0.029379
7129.097000 7129.100000 0.500000 3.113122 65.694139 2.920841 0.029476
7129.198000 7129.200000 0.500000 3.111867 65.634226 2.921800 0.027439
7129.293000 7129.300000 0.500000 3.110647 65.624976 2.925001 0.027942
7129.401000 7129.400000 0.500000 3.109108 65.586509 2.927987 0.027782
7129.498000 7129.500000 0.500000 3.107635 65.569144 2.931412 0.027166
7129.597000 7129.600000 0.500000 3.106405 65.511964 2.932419 0.027802
7129.698000 7129.700000 0.500000 3.105173 65.451453 2.933323 0.026488
7129.802000 7129.800000 0.500000 3.103889 65.396499 2.934792 0.026286
7129.901000 7129.900000 0.500000 3.102262 65.448288 2.941732 0.026000
7130.002000 7130.000000 0.500000 3.101138 65.382919 2.942136 0.025097
7130.102000 7130.100000 0.500000 3.099889 65.329546 2.943489 0.025656
7130.199000 7130.200000 0.500000 3.098567 65.335404 2.947531 0.025503
7130.302000 7130.300000 0.500000 3.097445 65.241493 2.946636 0.024365
7130.406000 7130.400000 0.500000 3.096016 65.204175 2.949230 0.023892
7130.500000 7130.500000 0.500000 3.094836 65.191804 2.952084 0.024253
7130.602000 7130.600000 0.500000 3.093413 65.146414 2.954188 0.025158
7130.703000 7130.700000 0.500000 3.092211 65.070304 2.954257 0.024757
7130.802000 7130.800000 0.500000 3.090620 65.004130 2.955979 0.025126
7130.904000 7130.900000 0.500000 3.089200 64.976526 2.958928 0.024816
7131.005000 7131.000000 0.500000 3.087734 64.992838 2.964086 0.024739
7131.104000 7131.100000 0.500000 3.086381 64.954083 2.966254 0.024482
7131.203000 7131.200000 0.500000 3.084742 64.932714 2.970141 0.024744
7131.303000 7131.300000 0.500000 3.083433 64.876895 2.971473 0.024903
7131.404000 7131.400000 0.500000 3.081955 64.818942 2.973165 0.024917
7131.501000 7131.500000 0.500000 3.080121 64.830434 2.979199 0.025510
7131.600000 7131.600000 0.500000 3.078486 64.838580 2.984446 0.025887
7131.702000 7131.700000 0.500000 3.077114 64.815730 2.987490 0.025642
7131.801000 7131.800000 0.500000 3.075550 64.750379 2.988999 0.026739
7131.900000 7131.900000 0.500000 3.074289 64.734309 2.992116 0.026820
7132.006000 7132.000000 0.500000 3.072876 64.737959 2.996675 0.027830
7132.096000 7132.100000 0.500000 3.071776 64.751787 3.000390 0.027269
7132.204000 7132.200000 0.500000 3.070470 64.733253 3.003544 0.026770
7132.290000 7132.300000 0.500000 3.069553 64.721268 3.005615 0.027951
7132.407000 7132.400000 0.500000 3.068099 64.676809 3.008173 0.028407
7132.491000 7132.500000 0.500000 3.067127 64.743267 3.013990 0.029078
7132.605000 7132.600000 0.500000 3.066034 64.721523 3.016463 0.028637
7132.715000 7132.700000 0.500000 3.064941 64.734669 3.020520 0.029853
7132.812000 7132.800000 0.500000 3.063916 64.722875 3.023118 0.030352
7132.914000 7132.900000 0.500000 3.062711 64.742534 3.027625 0.031429
7133.011000 7133.000000 0.500000 3.061929 64.753146 3.030513 0.030647
7133.110000 7133.100000 0.500000 3.060709 64.758511 3.034427 0.032056
7133.207000 7133.200000 0.500000 3.059744 64.738563 3.036296 0.031868
7133.311000 7133.300000 0.500000 3.058935 64.746150 3.039220 0.032186
7133.408000 7133.400000 0.500000 3.058086 64.743063 3.041641 0.032745
7133.505000 7133.500000 0.500000 3.056960 64.776159 3.046518 0.033586
7133.604000 7133.600000 0.500000 3.056033 64.780066 3.049560 0.032715
7133.706000 7133.700000 0.500000 3.055084 64.803658 3.053606 0.033807
7133.801000 7133.800000 0.500000 3.054040 64.803399 3.056713 0.035245
7133.902000 7133.900000 0.500000 3.053375 64.825094 3.059783 0.035989
7134.004000 7134.000000 0.500000 3.052364 64.850663 3.064069 0.035451
7134.103000 7134.100000 0.500000 3.051692 64.865562 3.066806 0.036900
7134.202000 7134.200000 0.500000 3.050795 64.942842 3.073227 0.036973
7134.299000 7134.300000 0.500000 3.049888 64.995207 3.078468 0.037300
7134.405000 7134.400000 0.500000 3.049364 65.008333 3.080730 0.035904
7134.502000 7134.500000 0.500000 3.048448 65.133579 3.089463 0.037873
7134.599000 7134.600000 0.500000 3.047639 65.154085 3.092922 0.038414
7134.703000 7134.700000 0.500000 3.046992 65.108593 3.092788 0.037710
7134.807000 7134.800000 0.500000 3.046255 65.199386 3.099435 0.038889
7134.902000 7134.900000 0.500000 3.045547 65.215353 3.102333 0.038882
7135.003000 7135.000000 0.500000 3.045193 65.246652 3.104913 0.039313
7135.102000 7135.100000 0.500000 3.044725 65.257799 3.106867 0.038859
7135.206000 7135.200000 0.500000 3.044174 65.250112 3.108232 0.039384
7135.301000 7135.300000 0.500000 3.043409 65.277275 3.111903 0.040417
7135.400000 7135.400000 0.500000 3.043071 65.292889 3.113679 0.040177
7135.504000 7135.500000 0.500000 3.042528 65.333891 3.117359 0.039597
7135.605000 7135.600000 0.500000 3.042072 65.350159 3.119562 0.039963
7135.700000 7135.700000 0.500000 3.041829 65.319389 3.118834 0.040638
7135.802000 7135.800000 0.500000 3.041277 65.316567 3.120458 0.041028
7135.906000 7135.900000 0.500000 3.040382 65.374906 3.126017 0.041641
7136.007000 7136.000000 0.500000 3.040018 65.427893 3.129686 0.040272
7136.104000 7136.100000 0.500000 3.039635 65.448083 3.131899 0.041581
7136.204000 7136.200000 0.500000 3.038958 65.432332 3.133265 0.041466
7136.307000 7136.300000 0.500000 3.038386 65.425541 3.134720 0.041460
7136.407000 7136.400000 0.500000 3.037526 65.402895 3.136299 0.042447
7136.502000 7136.500000 0.500000 3.037355 65.463442 3.139728 0.041739
7136.601000 7136.600000 0.500000 3.036798 65.503756 3.143442 0.041988
7136.703000 7136.700000 0.500000 3.036130 65.513227 3.145971 0.042363
7136.802000 7136.800000 0.500000 3.035253 65.511574 3.148660 0.041061
7136.899000 7136.900000 0.500000 3.034779 65.496142 3.149445 0.040833
7136.998000 7137.000000 0.500000 3.034140 65.534269 3.153266 0.042091
7137.106000 7137.100000 0.500000 3.033651 65.554737 3.155811 0.041631
7137.199000 7137.200000 0.500000 3.033183 65.561756 3.157591 0.041024
7137.299000 7137.300000 0.500000 3.032800 65.533678 3.157504 0.041334
7137.398000 7137.400000 0.500000 3.032164 65.523680 3.158976 0.041911
7137.500000 7137.500000 0.500000 3.031864 65.566285 3.161984 0.041055
7137.599000 7137.600000 0.500000 3.031279 65.614710 3.166209 0.041031
7137.694000 7137.700000 0.500000 3.030860 65.616162 3.167540 0.041494
7137.800000 7137.800000 0.500000 3.030488 65.604575 3.168189 0.041080
7137.899000 7137.900000 0.500000 3.030297 65.628098 3.169938 0.040324
7137.997000 7138.000000 0.500000 3.029836 65.638065 3.171876 0.041805
7138.096000 7138.100000 0.500000 3.029546 65.643136 3.173032 0.041336
7138.198000 7138.200000 0.500000 3.029362 65.661457 3.174500 0.040437
7138.297000 7138.300000 0.500000 3.028768 65.644998 3.175567 0.040195
7138.396000 7138.400000 0.500000 3.028612 65.665653 3.177081 0.039799
7138.498000 7138.500000 0.500000 3.028371 65.649836 3.177084 0.040014
7138.604000 7138.600000 0.500000 3.028169 65.646878 3.177581 0.039813
7138.699000 7138.700000 0.500000 3.028037 65.627782 3.177070 0.038757
7138.794000 7138.800000 0.500000 3.027933 65.618745 3.176961 0.039398
7138.896000 7138.900000 0.500000 3.027687 65.716610 3.182467 0.039371
7138.999000 7139.000000 0.500000 3.027092 65.716564 3.184338 0.038959
7139.101000 7139.100000 0.500000 3.027211 65.706355 3.183513 0.038611
7139.200000 7139.200000 0.500000 3.026991 65.677810 3.182830 0.038617
7139.300000 7139.300000 0.500000 3.026941 65.675924 3.182914 0.038314
7139.404000 7139.400000 0.500000 3.026594 65.652181 3.182841 0.038911
7139.501000 7139.500000 0.500000 3.026369 65.661504 3.184002 0.037667
7139.598000 7139.600000 0.500000 3.026496 65.708957 3.185926 0.038716
7139.704000 7139.700000 0.500000 3.026058 65.716977 3.187702 0.039092
7139.803000 7139.800000 0.500000 3.026201 65.712921 3.187046 0.037421
7139.903000 7139.900000 0.500000 3.026110 65.685777 3.186021 0.038055
7140.000000 7140.000000 0.500000 3.025698 65.700581 3.188051 0.037551
7140.106000 7140.100000 0.500000 3.025724 65.698966 3.187880 0.038083
7140.203000 7140.200000 0.500000 3.025620 65.682097 3.187404 0.038088
7140.301000 7140.300000 0.500000 3.025486 65.680270 3.187731 0.037237
7140.400000 7140.400000 0.500000 3.025329 65.703358 3.189362 0.037613
7140.506000 7140.500000 0.500000 3.025105 65.716816 3.190731 0.036875
7140.603000 7140.600000 0.500000 3.025131 65.712600 3.190438 0.037083
7140.701000 7140.700000 0.500000 3.025032 65.679085 3.189139 0.036622
7140.802000 7140.800000 0.500000 3.024917 65.659203 3.188545 0.036847
7140.906000 7140.900000 0.500000 3.024800 65.667405 3.189345 0.036467
7140.999000 7141.000000 0.500000 3.024472 65.675797 3.190757 0.036168
7141.099000 7141.100000 0.500000 3.024625 65.718720 3.192355 0.035709
7141.200000 7141.200000 0.500000 3.024341 65.700115 3.192350 0.036980
7141.300000 7141.300000 0.500000 3.024504 65.676184 3.190672 0.037022
7141.397000 7141.400000 0.500000 3.024032 65.681209 3.192423 0.037584
7141.499000 7141.500000 0.500000 3.023722 65.678928 3.193306 0.036711
7141.598000 7141.600000 0.500000 3.023645 65.693771 3.194267 0.036453
7141.702000 7141.700000 0.500000 3.023445 65.707668 3.195578 0.036832
7141.795000 7141.800000 0.500000 3.023323 65.681048 3.194689 0.036801
7141.897000 7141.900000 0.500000 3.023311 65.686554 3.194989 0.036476
7141.999000 7142.000000 0.700000 3.023007 91.934797 4.473059 0.051110
7143.095000 7143.080000 0.710000 3.021040 93.255581 4.546254 0.052758
7144.208000 7144.180000 0.730000 3.018937 95.896625 4.684863 0.055933
7145.282000 7145.290000 0.740000 3.016396 97.121882 4.756774 0.056369
7146.427000 7146.430000 0.750000 3.013103 98.463987 4.838429 0.054408
7147.587000 7147.580000 0.760000 3.009701 99.816475 4.921647 0.051665
7148.774000 7148.760000 0.780000 3.006086 102.465731 5.070501 0.050305
7149.960000 7149.950000 0.790000 3.003337 103.824387 5.151903 0.049067
7151.164000 7151.160000 0.800000 3.001259 105.161710 5.229106 0.048769
7152.396000 7152.390000 0.810000 2.999743 106.518676 5.304617 0.049323
7153.646000 7153.640000 0.830000 2.999498 109.208243 5.439890 0.048482
7154.918000 7154.910000 0.840000 2.999930 110.552857 5.504486 0.051150
7156.211000 7156.200000 0.850000 3.000392 111.867781 5.567388 0.053166
7157.518000 7157.510000 0.860000 3.000160 113.129546 5.631486 0.052172
7158.838000 7158.830000 0.880000 2.999055 115.665985 5.764116 0.055023
7160.188000 7160.180000 0.890000 2.998345 117.010042 5.835235 0.054834
7161.554000 7161.540000 0.900000 2.997843 118.267104 5.900889 0.056780
7162.936000 7162.930000 0.910000 2.997341 119.449475 5.962881 0.058098
7164.336000 7164.330000 0.930000 2.996353 121.941961 6.093312 0.059534
7165.762000 7165.750000 0.940000 2.994757 123.102266 6.161116 0.060845
7167.200000 7167.190000 0.950000 2.993135 124.293681 6.230841 0.063266
7168.661000 7168.650000 0.960000 2.992084 125.503355 6.298099 0.064424
7170.141000 7170.130000 0.980000 2.991206 127.981498 6.428102 0.067240
7171.636000 7171.630000 0.990000 2.991117 129.095607 6.484640 0.069853
7173.146000 7173.140000 1.000000 2.990778 130.300099 6.547362 0.072596
7174.685000 7174.680000 1.010000 2.989734 131.572927 6.618224 0.077774
7176.247000 7176.240000 1.030000 2.988644 133.955416 6.745415 0.083519
7177.821000 7177.810000 1.040000 2.987249 135.132863 6.814231 0.088943
7179.404000 7179.400000 1.050000 2.985425 136.436683 6.892496 0.091709
7181.014000 7181.010000 1.060000 2.984303 137.628659 6.960533 0.092379
7182.666000 7182.650000 1.080000 2.983131 140.203341 7.099066 0.093584
7184.306000 7184.300000 1.090000 2.981650 141.493447 7.174985 0.094066
7185.980000 7185.970000 1.100000 2.978840 142.973465 7.270439 0.091691
7187.661000 7187.650000 1.110000 2.974950 144.171291 7.359895 0.089279
7189.373000 7189.360000 1.130000 2.971167 146.698888 7.517356 0.085720
7191.100000 7191.090000 1.140000 2.967071 147.779594 7.603741 0.080049
7192.845000 7192.830000 1.150000 2.963141 149.528361 7.724090 0.076969
7194.619000 7194.600000 1.160000 2.959345 150.872664 7.823177 0.077395
7196.403000 7196.380000 1.180000 2.955496 153.532129 7.991815 0.082155
7198.195000 7198.180000 1.190000 2.951722 154.607943 8.078173 0.085493
7200.018000 7200.000000 1.200000 2.947815 156.017902 8.183827 0.091803
7201.854000 7201.840000 1.210000 2.943890 157.341807 8.285698 0.100684
7203.716000 7203.700000 1.230000 2.940085 159.869172 8.450883 0.109929
7205.596000 7205.580000 1.240000 2.936688 161.098583 8.544844 0.120044
7207.498000 7207.480000 1.250000 2.933909 162.478742 8.642063 0.124209
7209.417000 7209.400000 1.260000 2.931979 163.717547 8.724761 0.121561
7211.345000 7211.330000 1.280000 2.930293 166.182528 8.871054 0.111076
7213.308000 7213.290000 1.290000 2.928331 167.379891 8.952521 0.096116
7215.276000 7215.260000 1.300000 2.926584 168.699887 9.038913 0.082644
7217.272000 7217.260000 1.310000 2.924685 169.785694 9.114331 0.072818
7219.276000 7219.270000 1.330000 2.922495 172.347013 9.272109 0.067271
7221.303000 7221.300000 1.340000 2.920668 173.435216 9.347712 0.066751
7223.354000 7223.350000 1.350000 2.918364 174.488989 9.426196 0.071984
7225.425000 7225.420000 1.360000 2.915871 175.529050 9.506027 0.080314
7227.527000 7227.510000 1.380000 2.913102 176.721529 9.597225 0.092925
7229.623000 7229.610000 1.390000 2.911060 179.498803 9.767927 0.107781
7231.747000 7231.740000 1.400000 2.908804 180.791118 9.860468 0.125681
7233.890000 7233.890000 1.410000 2.906385 182.042690 9.952709 0.140763
7236.062000 7236.050000 1.430000 2.903484 184.414799 10.111793 0.153898
7238.232000 7238.230000 1.440000 2.899919 185.488755 10.206906 0.160446
7240.444000 7240.440000 1.450000 2.896315 186.745544 10.313325 0.160925
7242.666000 7242.660000 1.460000 2.893311 187.805325 10.403042 0.155618
7244.901000 7244.900000 1.480000 2.889827 190.329831 10.579517 0.151354
7247.157000 7247.160000 1.490000 2.886907 188.242876 10.494237 0.144535
7249.437000 7249.440000 1.500000 2.883217 192.240017 10.756646 0.144923
7251.747000 7251.740000 1.510000 2.879984 193.629439 10.869600 0.147160
7254.044000 7254.050000 1.530000 2.876927 195.957903 11.033852 0.153745
7256.393000 7256.390000 1.540000 2.874056 197.041525 11.126806 0.158218
7258.742000 7258.740000 1.550000 2.871557 198.292517 11.225527 0.158397
7261.119000 7261.120000 1.560000 2.869007 198.787458 11.282213 0.154043
7263.509000 7263.510000 1.580000 2.867823 188.425284 10.706796 0.142728
7265.914000 7265.920000 1.590000 2.863412 203.308306 11.603445 0.152167
7268.367000 7268.350000 1.600000 2.860291 205.001646 11.736951 0.149545
7270.800000 7270.800000 1.610000 2.857002 206.150709 11.841526 0.143319
7273.264000 7273.270000 1.630000 2.853025 207.474916 11.964847 0.136955
7275.759000 7275.760000 1.640000 2.849171 209.767698 12.143825 0.135623
7278.265000 7278.270000 1.650000 2.845231 211.111718 12.269843 0.134220
7280.782000 7280.790000 1.660000 2.841880 211.441819 12.330358 0.132142
7283.338000 7283.340000 1.680000 2.838427 213.888062 12.516270 0.127475
7285.899000 7285.900000 1.690000 2.835128 215.330478 12.642328 0.124679
7288.491000 7288.490000 1.700000 2.831619 216.529264 12.757324 0.125366
7291.089000 7291.090000 1.710000 2.828539 217.655270 12.863186 0.129820
7293.712000 7293.710000 1.730000 2.825225 220.183008 13.055852 0.141837
7296.344000 7296.350000 1.740000 2.821885 221.147749 13.156858 0.157752
7299.012000 7299.010000 1.750000 2.818452 222.235253 13.267082 0.173724
7301.683000 7301.690000 1.760000 2.814942 219.927967 13.175474 0.185719
7304.387000 7304.390000 1.780000 2.811172 226.158650 13.599864 0.200041
7307.115000 7307.110000 1.790000 2.807355 227.367724 13.724990 0.209525
7309.836000 7309.840000 1.800000 2.803919 228.305644 13.828992 0.213810
7312.594000 7312.600000 1.810000 2.800294 229.417347 13.946665 0.215590
7315.369000 7315.370000 1.830000 2.796764 231.896052 14.147331 0.217715
7318.169000 7318.170000 1.840000 2.793231 233.042960 14.267659 0.220746
7320.981000 7320.980000 1.850000 2.789762 234.448805 14.403554 0.222706
7323.804000 7323.810000 1.860000 2.786104 235.721157 14.534732 0.226846
7326.657000 7326.660000 1.880000 2.782401 238.090431 14.735343 0.228881
7329.537000 7329.530000 1.890000 2.778747 239.036693 14.848159 0.232572
7332.422000 7332.420000 1.900000 2.775196 240.333137 14.981692 0.239838
7335.319000 7335.320000 1.910000 2.771648 241.809886 15.127252 0.245678
7338.258000 7338.250000 1.930000 2.768294 244.033098 15.317816 0.251909
7341.199000 7341.200000 1.940000 2.764697 244.928372 15.429306 0.254402
7344.164000 7344.160000 1.950000 2.761416 246.250097 15.563513 0.243095
7347.141000 7347.140000 1.960000 2.757643 247.408670 15.695839 0.233512
7350.148000 7350.150000 1.980000 2.753982 249.850127 15.908962 0.224812
7353.172000 7353.170000 1.990000 2.750071 250.585344 16.018371 0.216327
7356.214000 7356.210000 2.000000 2.746201 251.688912 16.151231 0.209702
7359.268000 7359.270000 2.010000 2.742231 252.912794 16.294173 0.203800
7362.346000 7362.350000 2.030000 2.738337 255.095828 16.499011 0.199725
7365.451000 7365.450000 2.040000 2.734325 256.188006 16.636308 0.199612
7368.562000 7368.560000 2.050000 2.730236 257.333299 16.779216 0.204018
7371.703000 7371.700000 2.060000 2.726070 258.178797 16.904569 0.213566
7374.851000 7374.850000 2.080000 2.722033 260.556729 17.129238 0.230573
7378.025000 7378.030000 2.090000 2.718062 261.600572 17.266370 0.255521
7381.216000 7381.220000 2.100000 2.714366 262.528336 17.391716 0.284422
7384.438000 7384.430000 2.110000 2.710420 263.662602 17.535975 0.307478
7387.660000 7387.660000 2.130000 2.706435 265.773289 17.746864 0.318462
7390.914000 7390.920000 2.140000 2.702465 267.022153 17.901141 0.319666
7394.181000 7394.180000 2.150000 2.698397 267.900359 18.033285 0.316559
7397.468000 7397.470000 2.160000 2.694531 268.939328 18.173282 0.315074
7400.779000 7400.780000 2.180000 2.690501 271.283299 18.405759 0.318224
7404.108000 7404.110000 2.190000 2.686464 272.260214 18.546737 0.323997
7407.446000 7407.450000 2.200000 2.682561 273.229674 18.685563 0.324656
7410.815000 7410.820000 2.210000 2.678508 274.226652 18.829882 0.324874
7414.195000 7414.200000 2.230000 2.674278 276.547606 19.069718 0.327877
7417.603000 7417.600000 2.240000 2.670012 277.578207 19.222727 0.332701
7421.034000 7421.030000 2.250000 2.665829 278.496549 19.367177 0.338744
7424.470000 7424.470000 2.260000 2.661614 279.505071 19.519367 0.347323
7427.928000 7427.930000 2.280000 2.657359 281.687948 19.755585 0.358221
7431.399000 7431.400000 2.290000 2.653325 282.566840 19.897427 0.359037
7434.907000 7434.900000 2.300000 2.648978 283.598233 20.057103 0.360615
7438.424000 7438.420000 2.310000 2.644704 284.519211 20.208406 0.358605
7441.969000 7441.960000 2.330000 2.640511 286.576651 20.440029 0.352201
7445.510000 7445.510000 2.340000 2.636481 280.099041 20.058579 0.336439
7449.093000 7449.090000 2.350000 2.632213 288.955749 20.781451 0.340225
7452.677000 7452.680000 2.360000 2.627895 289.727175 20.927004 0.340485
7456.295000 7456.290000 2.380000 2.623582 291.965064 21.179925 0.344663
7459.928000 7459.920000 2.390000 2.619348 293.143245 21.355672 0.350358
7463.573000 7463.570000 2.400000 2.615162 293.878025 21.498919 0.356903
7467.242000 7467.240000 2.410000 2.611180 289.521161 21.264644 0.361048
7470.932000 7470.930000 2.430000 2.606356 297.617599 21.965029 0.384823
7474.640000 7474.640000 2.440000 2.602120 298.394684 22.115839 0.399101
7478.359000 7478.360000 2.450000 2.597656 299.191125 22.274168 0.412028
7482.119000 7482.110000 2.460000 2.593093 300.810901 22.497242 0.424259
7485.875000 7485.870000 2.480000 2.588729 302.863759 22.749769 0.438621
7489.665000 7489.660000 2.490000 2.584371 303.559029 22.901613 0.454913
7493.464000 7493.460000 2.500000 2.580087 304.707118 23.086825 0.465137
7497.283000 7497.280000 2.510000 2.575701 306.205380 23.302400 0.472321
7501.119000 7501.120000 2.530000 2.571197 308.321197 23.569326 0.477969
7504.985000 7504.980000 2.540000 2.566922 308.950102 23.718609 0.477001
7508.865000 7508.860000 2.550000 2.562551 309.962143 23.900542 0.480850
7512.766000 7512.760000 2.560000 2.557914 310.529403 24.055482 0.487607
7516.680000 7516.680000 2.580000 2.553326 312.475629 24.317466 0.493753
7520.614000 7520.610000 2.590000 2.548893 313.672664 24.519138 0.500703
7524.573000 7524.570000 2.600000 2.544404 314.014170 24.656332 0.503100
7528.542000 7528.540000 2.610000 2.539984 314.985119 24.842272 0.507784
7532.543000 7532.540000 2.630000 2.535383 316.948583 25.112295 0.512092
7536.552000 7536.550000 2.640000 2.530698 317.620232 25.283683 0.515805
7540.589000 7540.580000 2.650000 2.526164 318.245191 25.448628 0.521311
7544.636000 7544.630000 2.660000 2.521634 319.039076 25.627822 0.529887
7548.711000 7548.700000 2.680000 2.516833 321.254013 25.929930 0.539593
7552.794000 7552.790000 2.690000 2.512329 321.674423 26.081066 0.541001
7556.900000 7556.900000 2.700000 2.507734 322.640766 26.279848 0.540399
7561.024000 7561.020000 2.710000 2.503370 323.225094 26.442613 0.539674
7565.171000 7565.170000 2.730000 2.498857 325.169207 26.721988 0.543984
7569.335000 7569.330000 2.740000 2.494169 325.723053 26.893334 0.550439
7573.526000 7573.520000 2.750000 2.489508 326.771591 27.105933 0.564551
7577.732000 7577.720000 2.760000 2.484870 327.171505 27.265357 0.580476
7581.945000 7581.940000 2.780000 2.480097 329.019710 27.550433 0.599343
7586.190000 7586.180000 2.790000 2.475525 329.604081 27.725889 0.612049
7590.445000 7590.440000 2.800000 2.470888 330.062231 27.893514 0.623087
7594.722000 7594.720000 2.810000 2.466258 330.660046 28.073501 0.629989
7599.026000 7599.020000 2.830000 2.461550 332.264586 28.343027 0.638230
7603.342000 7603.340000 2.840000 2.456799 332.340679 28.484426 0.645505
7607.676000 7607.670000 2.850000 2.452183 332.018841 28.588580 0.651100
7612.032000 7612.030000 2.860000 2.447386 332.120818 28.734829 0.663586
7616.411000 7616.400000 2.880000 2.442721 334.988480 29.118559 0.677430
7620.810000 7620.800000 2.890000 2.437951 336.001134 29.346261 0.684555
7625.219000 7625.210000 2.900000 2.433199 336.955759 29.569730 0.689407
7629.645000 7629.640000 2.910000 2.428540 337.540691 29.759431 0.695833
7634.095000 7634.090000 2.930000 2.423801 339.193649 30.047164 0.708095
7638.570000 7638.560000 2.940000 2.419009 339.692526 30.235934 0.720305
7643.057000 7643.050000 2.950000 2.414271 340.355874 30.438836 0.734136
7647.570000 7647.560000 2.960000 2.409478 340.443583 30.593106 0.745939
7652.086000 7652.080000 2.980000 2.404714 343.076017 30.976689 0.759936
7656.635000 7656.630000 2.990000 2.399862 343.271005 31.145144 0.767504
7661.193000 7661.190000 3.000000 2.395049 343.837129 31.346868 0.774369
7665.786000 7665.780000 3.010000 2.390224 344.225799 31.534243 0.780414
7670.382000 7670.380000 3.030000 2.385341 345.842534 31.837335 0.785833
7675.006000 7675.000000 3.040000 2.380698 346.808709 32.075042 0.790148
7679.639000 7679.640000 3.050000 2.375873 347.113219 32.258274 0.794194
7684.302000 7684.300000 3.060000 2.370945 346.975465 32.404859 0.799995
7688.985000 7688.980000 3.080000 2.366017 349.667250 32.817606 0.816927
7693.685000 7693.680000 3.090000 2.361250 349.422336 32.951294 0.829017
7698.400000 7698.400000 3.100000 2.356351 349.517693 33.122072 0.838919
7703.130000 7703.130000 3.110000 2.351281 349.867156 33.323797 0.850981
7707.894000 7707.890000 3.130000 2.345953 348.930880 33.412191 0.862773
7712.670000 7712.660000 3.140000 2.341415 351.260532 33.788291 0.879036
7717.464000 7717.460000 3.150000 2.336575 351.596988 33.984646 0.892954
7722.275000 7722.270000 3.160000 2.331716 351.695627 34.159789 0.906216
7727.104000 7727.100000 3.180000 2.326955 353.082595 34.458152 0.921181
7731.953000 7731.950000 3.190000 2.321884 353.289691 34.653599 0.930393
7736.823000 7736.820000 3.200000 2.316928 353.092736 34.806410 0.938203
7741.715000 7741.710000 3.210000 2.312012 354.502677 35.117627 0.952771
7746.623000 7746.620000 3.230000 2.307014 355.054082 35.348497 0.965514
7751.543000 7751.540000 3.240000 2.301991 355.176084 35.538656 0.974650
7756.496000 7756.490000 3.250000 2.296965 354.910077 35.690945 0.983660
7761.455000 7761.450000 3.260000 2.292123 354.938031 35.866984 0.995345
7766.443000 7766.440000 3.280000 2.286975 355.840237 36.143748 1.013326
7771.444000 7771.440000 3.290000 2.281928 355.808698 36.323369 1.026503
7776.463000 7776.460000 3.300000 2.276904 355.564596 36.481251 1.038997
7781.506000 7781.500000 3.310000 2.271996 355.398047 36.643674 1.048496
7786.562000 7786.560000 3.330000 2.266808 356.168148 36.913983 1.063766
7791.644000 7791.640000 3.340000 2.261691 355.944051 37.080078 1.074721
7796.745000 7796.740000 3.350000 2.256487 355.812874 37.259804 1.084385
7801.864000 7801.860000 3.360000 2.251184 355.432841 37.417768 1.094223
7806.990000 7806.990000 3.380000 2.246148 355.955952 37.662096 1.105904
7812.154000 7812.150000 3.390000 2.240906 355.581286 37.820208 1.113637
7817.325000 7817.320000 3.400000 2.235816 355.228321 37.975539 1.124140
7822.524000 7822.520000 3.410000 2.230482 354.715405 38.123480 1.134564
7827.736000 7827.730000 3.430000 2.225273 355.500061 38.407397 1.148355
7832.967000 7832.960000 3.440000 2.220149 355.524006 38.607257 1.160056
7838.214000 7838.210000 3.450000 2.215025 355.622495 38.816351 1.172632
7843.484000 7843.480000 3.460000 2.209688 354.728353 38.926024 1.181449
7848.772000 7848.770000 3.480000 2.204459 355.214557 39.183749 1.196766
7854.083000 7854.080000 3.490000 2.199232 353.170093 39.162284 1.202581
