# XDI/1.0 BlueSky/1.10.0 BMM/2023-1.0-py310-tiled
# Beamline.name: BMM (06BM) -- Beamline for Materials Measurement (NIST)
# Beamline.xray_source: NSLS-II three-pole wiggler
# Beamline.collimation: paraboloid mirror, 5 nm Rh on 30 nm Pt
# Beamline.focusing: not in use
# Beamline.harmonic_rejection: flat mirror, Si stripe, pitch = 7.0 mrad relative to beam
# Beamline.software: Bluesky 1.10.0, Ophyd 1.7.0, DataBroker 2.0.0b13, Python 3.10.8, 2023-1.0-py310-tiled
# Detector.I0: 10 cm N2
# Detector.I1: 25 cm N2
# Detector.I2: 25 cm N2
# Element.symbol: Fe
# Element.edge: K
# Element.reference: Fe
# Element.reference_material: Fe foil
# Facility.name: NSLS-II
# Facility.energy: 3.0
# Facility.current: 400.0
# Facility.mode: top-off
# Facility.GUP: 123456
# Facility.SAF: 301027
# Facility.cycle: 2023-2
# Mono.name: Si(111)
# Mono.d_spacing: 3.1351860
# Mono.encoder_resolution: 0.0000050 deg/ct
# Mono.angle_offset: 16.0754326 deg
# Mono.scan_mode: pseudo channel cut
# Mono.scan_type: step
# Mono.direction: forward in energy
# Sample.name: gamma-FeOOH
# Sample.prep: powder on tape
# Sample.x: 116.329 mm
# Sample.y: 114.126 mm
# Sample.SDD_position: 205.000 mm
# Scan.experimenters: Bruce Ravel
# Scan.edge_energy: 7112.0
# Scan.start_time: 2023-05-05T17:04:08
# Scan.end_time: 2023-05-05T17:12:16
# Scan.transient_id: 74506
# Scan.uid: a42ce525-1b10-4fb5-9dc1-11dc8e8f5189
# Scan.plot_hint: ln(I0/It)  --  ln($5/$6)
# Column.1: energy eV
# Column.2: requested_energy eV
# Column.3: measurement_time seconds
# Column.4: xmu 
# Column.5: I0 nA
# Column.6: It nA
# Column.7: Ir nA
# ///////////
# Welcome to BMM
# -----------
# energy  requested_energy  measurement_time  xmu  I0  It  Ir
  6911.997  6912.000  0.500  1.659787  153.862097  29.261405  5.491544
  6921.872  6922.000  0.500  1.650141  153.739094  29.521404  5.580171
  6932.015  6932.000  0.500  1.640259  153.722727  29.811419  5.673938
  6942.031  6942.000  0.500  1.630425  153.749296  30.111222  5.771361
  6951.997  6952.000  0.500  1.620511  153.759682  30.413295  5.871539
  6962.002  6962.000  0.500  1.610645  153.766820  30.716275  5.970431
  6972.006  6972.000  0.500  1.601054  153.790634  31.017070  6.070640
  6982.019  6982.000  0.500  1.591424  153.772533  31.313531  6.169752
  6992.020  6992.000  0.500  1.581713  153.772200  31.619042  6.272233
  7002.013  7002.000  0.500  1.572293  153.812170  31.926575  6.376202
  7012.010  7012.000  0.500  1.562886  153.810837  32.228064  6.478700
  7022.014  7022.000  0.500  1.553440  153.735888  32.518086  6.580904
  7032.012  7032.000  0.500  1.544346  153.940382  32.858787  6.691699
  7042.013  7042.000  0.500  1.534726  153.848998  33.156721  6.794415
  7052.009  7052.000  0.500  1.525556  153.790207  33.449387  6.895766
  7062.008  7062.000  0.500  1.516307  153.010043  33.588925  6.962148
  7072.011  7072.000  0.500  1.507366  153.586188  34.018193  7.086453
  7082.577  7082.000  0.500  1.497836  152.703386  34.146547  7.139588
  7083.978  7084.000  0.500  1.496901  153.437027  34.342687  7.181750
  7085.985  7086.000  0.500  1.495024  153.568691  34.436738  7.203859
  7087.985  7088.000  0.500  1.493442  153.573973  34.492445  7.216593
  7089.979  7090.000  0.500  1.491790  153.552269  34.544598  7.227242
  7091.984  7092.000  0.500  1.489661  153.553144  34.618414  7.238777
  7093.980  7094.000  0.500  1.488438  153.545025  34.658928  7.243154
  7095.965  7096.000  0.500  1.486412  153.525972  34.724942  7.248867
  7097.993  7098.000  0.500  1.484762  153.447102  34.764411  7.244110
  7099.986  7100.000  0.500  1.483148  153.463855  34.824360  7.237465
  7101.997  7102.000  0.500  1.481890  153.422569  34.858809  7.213953
  7102.290  7102.300  0.500  1.481589  153.378370  34.859258  7.208788
  7102.585  7102.600  0.500  1.481168  153.413909  34.882034  7.206911
  7102.884  7102.900  0.500  1.480837  153.387878  34.887652  7.201230
  7103.186  7103.200  0.500  1.480910  153.381589  34.883666  7.193518
  7103.483  7103.500  0.500  1.480514  153.375461  34.896088  7.187883
  7103.783  7103.800  0.500  1.480374  153.360345  34.897526  7.179081
  7104.089  7104.100  0.500  1.480049  153.343242  34.905006  7.172501
  7104.384  7104.400  0.500  1.479747  153.327875  34.912028  7.165258
  7104.681  7104.700  0.500  1.479500  153.347322  34.925083  7.156487
  7104.985  7105.000  0.500  1.479274  153.339671  34.931233  7.145944
  7105.283  7105.300  0.500  1.479344  153.329115  34.926393  7.131886
  7105.587  7105.600  0.500  1.479075  153.314650  34.932494  7.119272
  7105.888  7105.900  0.500  1.478910  153.304777  34.936006  7.105151
  7106.188  7106.200  0.500  1.478525  153.292183  34.946597  7.090186
  7106.490  7106.500  0.500  1.478507  153.288564  34.946380  7.072771
  7106.790  7106.800  0.500  1.478116  153.295266  34.961580  7.054170
  7107.089  7107.100  0.500  1.477763  153.275912  34.969512  7.033707
  7107.387  7107.400  0.500  1.477667  153.265635  34.970529  7.008546
  7107.689  7107.700  0.500  1.477440  153.243414  34.973395  6.978443
  7107.989  7108.000  0.500  1.477197  153.247904  34.982909  6.945136
  7108.284  7108.300  0.500  1.477060  153.243010  34.986597  6.904543
  7108.593  7108.600  0.500  1.476959  153.251852  34.992163  6.857355
  7108.884  7108.900  0.500  1.477039  153.224953  34.983198  6.799056
  7109.191  7109.200  0.500  1.476634  153.219886  34.996224  6.729766
  7109.486  7109.500  0.500  1.476428  153.209877  35.001143  6.639417
  7109.793  7109.800  0.500  1.476438  153.199569  34.998441  6.516761
  7110.097  7110.100  0.500  1.476227  153.179392  35.001200  6.345638
  7110.397  7110.400  0.500  1.476209  153.137973  34.992385  6.103968
  7110.699  7110.700  0.500  1.476189  153.128935  34.991020  5.768267
  7110.993  7111.000  0.500  1.476161  153.097916  34.984902  5.337494
  7111.295  7111.300  0.500  1.476298  153.062443  34.971992  4.827529
  7111.597  7111.600  0.500  1.476593  153.029600  34.954197  4.305605
  7111.891  7111.900  0.500  1.477331  152.982304  34.917616  3.848494
  7112.189  7112.200  0.500  1.478149  152.968996  34.886014  3.492054
  7112.492  7112.500  0.500  1.479713  152.943082  34.825620  3.220082
  7112.790  7112.800  0.500  1.481376  152.936516  34.766244  3.012485
  7113.094  7113.100  0.500  1.482693  152.894404  34.710932  2.841261
  7113.395  7113.400  0.500  1.482916  152.872502  34.698205  2.698309
  7113.693  7113.700  0.500  1.482307  152.863313  34.717264  2.569595
  7113.995  7114.000  0.500  1.481960  152.840681  34.724173  2.452075
  7114.298  7114.300  0.500  1.482033  152.829689  34.719155  2.349346
  7114.603  7114.600  0.500  1.481923  152.809808  34.718457  2.263292
  7114.903  7114.900  0.500  1.481445  152.822242  34.737874  2.200481
  7115.199  7115.200  0.500  1.480524  152.835685  34.772932  2.155854
  7115.498  7115.500  0.500  1.479804  152.833673  34.797522  2.123742
  7115.802  7115.800  0.500  1.479596  152.816039  34.800746  2.099757
  7116.101  7116.100  0.500  1.479751  152.806544  34.793191  2.079533
  7116.393  7116.400  0.500  1.480438  152.779266  34.763086  2.057101
  7116.693  7116.700  0.500  1.480865  152.770880  34.746328  2.026326
  7116.990  7117.000  0.500  1.481165  152.766366  34.734904  1.980705
  7117.299  7117.300  0.500  1.481669  152.744833  34.712482  1.914583
  7117.602  7117.600  0.500  1.482200  152.732792  34.691320  1.826735
  7117.898  7117.900  0.500  1.482691  152.700424  34.666963  1.724488
  7118.201  7118.200  0.500  1.483209  152.706612  34.650404  1.608921
  7118.502  7118.500  0.500  1.483801  152.690274  34.626191  1.490888
  7118.801  7118.800  0.500  1.484626  152.686170  34.596721  1.377375
  7119.104  7119.100  0.500  1.485248  152.663814  34.570147  1.270047
  7119.402  7119.400  0.500  1.486245  152.648468  34.532233  1.171807
  7119.701  7119.700  0.500  1.487774  152.647483  34.479237  1.080230
  7120.000  7120.000  0.500  1.489629  152.641035  34.413886  0.991335
  7120.301  7120.300  0.500  1.492007  152.632304  34.330178  0.905514
  7120.599  7120.600  0.500  1.495057  152.620983  34.223094  0.826270
  7120.894  7120.900  0.500  1.498930  152.599610  34.086037  0.754831
  7121.197  7121.200  0.500  1.503418  152.565371  33.925786  0.692618
  7121.500  7121.500  0.500  1.508931  152.544306  33.734595  0.638220
  7121.799  7121.800  0.500  1.515533  152.507124  33.504444  0.592214
  7122.102  7122.100  0.500  1.523400  152.505850  33.241644  0.551652
  7122.401  7122.400  0.500  1.532613  152.498701  32.935235  0.516537
  7122.700  7122.700  0.500  1.542669  152.492399  32.604348  0.484886
  7123.006  7123.000  0.500  1.553441  152.465840  32.249403  0.456559
  7123.305  7123.300  0.500  1.564192  152.455460  31.902383  0.431620
  7123.604  7123.600  0.500  1.574376  152.421837  31.572168  0.410006
  7123.903  7123.900  0.500  1.583839  152.392617  31.268798  0.390951
  7124.202  7124.200  0.500  1.593136  152.379097  30.976702  0.373819
  7124.503  7124.500  0.500  1.602848  152.375012  30.676489  0.357428
  7124.803  7124.800  0.500  1.613046  152.335842  30.357443  0.342066
  7125.095  7125.100  0.500  1.624302  152.338021  30.018079  0.327831
  7125.397  7125.400  0.500  1.636697  152.319799  29.644761  0.313811
  7125.698  7125.700  0.500  1.649835  152.307595  29.255489  0.300319
  7126.002  7126.000  0.500  1.664212  152.271792  28.831111  0.287021
  7126.299  7126.300  0.500  1.680010  152.275432  28.379885  0.273771
  7126.602  7126.600  0.500  1.697481  152.242391  27.882315  0.260305
  7126.897  7126.900  0.500  1.716336  152.203585  27.354564  0.246563
  7127.201  7127.200  0.500  1.736866  152.177791  26.794140  0.232546
  7127.505  7127.500  0.500  1.759047  152.174641  26.205840  0.218203
  7127.802  7127.800  0.500  1.780753  152.169480  25.642262  0.204437
  7128.099  7128.100  0.500  1.802226  152.144255  25.093363  0.191355
  7128.401  7128.400  0.500  1.822459  152.115359  24.586064  0.178782
  7128.698  7128.700  0.500  1.840805  152.078130  24.133224  0.166870
  7129.000  7129.000  0.500  1.857023  152.054498  23.741301  0.155935
  7129.300  7129.300  0.500  1.870247  152.051815  23.428989  0.146164
  7129.595  7129.600  0.500  1.880744  152.024328  23.180158  0.137867
  7129.895  7129.900  0.500  1.889058  152.005383  22.985371  0.130903
  7130.201  7130.200  0.500  1.895852  151.973807  22.825003  0.125165
  7130.502  7130.500  0.500  1.900950  151.925212  22.701656  0.121197
  7130.802  7130.800  0.500  1.905340  151.889508  22.596908  0.118364
  7131.104  7131.100  0.500  1.908945  151.886887  22.515205  0.117200
  7131.402  7131.400  0.500  1.910933  151.834912  22.462799  0.117666
  7131.706  7131.700  0.500  1.911481  151.803396  22.445834  0.119907
  7132.008  7132.000  0.500  1.910250  151.798077  22.472708  0.123659
  7132.303  7132.300  0.500  1.907236  151.787629  22.538974  0.128151
  7132.603  7132.600  0.500  1.903085  151.803118  22.635055  0.133818
  7132.901  7132.900  0.500  1.897864  151.797427  22.752686  0.140588
  7133.201  7133.200  0.500  1.891635  151.789225  22.893619  0.147689
  7133.496  7133.500  0.500  1.885291  151.782199  23.038249  0.155043
  7133.796  7133.800  0.500  1.879114  151.762999  23.178052  0.162645
  7134.094  7134.100  0.500  1.873395  151.758566  23.310305  0.169931
  7134.398  7134.400  0.500  1.868268  151.757814  23.430022  0.176834
  7134.705  7134.700  0.500  1.863896  151.741385  23.530124  0.182875
  7135.001  7135.000  0.500  1.860214  151.756462  23.619271  0.188296
  7135.303  7135.300  0.500  1.856499  151.753703  23.706753  0.193363
  7135.601  7135.600  0.500  1.853122  152.121443  23.844581  0.197737
  7135.907  7135.900  0.500  1.850233  152.153901  23.918664  0.201321
  7136.203  7136.200  0.500  1.847332  152.126479  23.983848  0.203802
  7136.506  7136.500  0.500  1.844528  152.139186  24.053195  0.205654
  7136.799  7136.800  0.500  1.841771  152.126153  24.117536  0.206722
  7137.002  7137.000  0.500  1.839817  152.136736  24.166384  0.207488
  7137.998  7137.990  0.500  1.829327  152.115990  24.417894  0.205317
  7139.003  7138.990  0.500  1.817026  152.121444  24.721010  0.198797
  7140.026  7140.010  0.500  1.803386  152.111761  25.058917  0.191975
  7141.072  7141.060  0.500  1.790957  152.128167  25.375050  0.188119
  7142.138  7142.120  0.500  1.780183  152.106446  25.646257  0.189374
  7143.218  7143.200  0.500  1.770486  152.117980  25.898122  0.194027
  7144.318  7144.300  0.500  1.762750  152.119418  26.099505  0.198842
  7145.437  7145.420  0.500  1.757205  152.110832  26.243134  0.198505
  7146.585  7146.560  0.500  1.753603  152.110882  26.337842  0.191611
  7147.703  7147.710  0.500  1.748486  152.072232  26.466225  0.180716
  7148.875  7148.890  0.500  1.738356  152.074165  26.736032  0.170657
  7150.070  7150.080  0.500  1.724345  152.076537  27.113695  0.164808
  7151.295  7151.300  0.500  1.709532  152.066612  27.516518  0.162663
  7152.523  7152.530  0.500  1.696487  152.050601  27.874879  0.161463
  7153.775  7153.780  0.500  1.685726  152.044626  28.175378  0.161459
  7155.047  7155.050  0.500  1.677408  152.011879  28.404594  0.164408
  7156.335  7156.340  0.500  1.671232  152.006673  28.579565  0.168509
  7157.652  7157.650  0.500  1.666772  151.961490  28.698793  0.171576
  7158.984  7158.980  0.500  1.664026  151.989687  28.783041  0.173057
  7160.337  7160.330  0.500  1.662286  151.950870  28.825806  0.173725
  7161.709  7161.700  0.500  1.660718  151.920225  28.865218  0.175658
  7163.095  7163.080  0.500  1.660789  151.884531  28.856401  0.178493
  7164.493  7164.490  0.500  1.663092  151.853288  28.784098  0.181685
  7165.915  7165.910  0.500  1.667331  151.807273  28.653652  0.183976
  7167.360  7167.350  0.500  1.672789  151.783845  28.493287  0.185292
  7168.809  7168.810  0.500  1.679906  151.735448  28.282190  0.186104
  7170.294  7170.290  0.500  1.688904  151.715435  28.025168  0.187760
  7171.799  7171.790  0.500  1.698863  151.689469  27.742681  0.191422
  7173.312  7173.310  0.500  1.708349  151.638526  27.471552  0.198123
  7174.851  7174.850  0.500  1.717204  151.600963  27.222600  0.207122
  7176.411  7176.410  0.500  1.723598  151.593111  27.047701  0.217799
  7177.987  7177.980  0.500  1.726617  151.557615  26.959848  0.228675
  7179.585  7179.580  0.500  1.728408  151.548154  26.909945  0.235840
  7181.195  7181.190  0.500  1.728706  151.525436  26.897889  0.237499
  7182.841  7182.830  0.500  1.726817  151.490626  26.942553  0.235436
  7184.483  7184.480  0.500  1.723430  151.466523  27.029667  0.231368
  7186.161  7186.150  0.500  1.718993  151.456890  27.148137  0.223270
  7187.846  7187.840  0.500  1.714629  151.389957  27.254813  0.212629
  7189.557  7189.550  0.500  1.709689  151.355859  27.383624  0.202211
  7191.292  7191.280  0.500  1.704451  149.653281  27.217765  0.189105
  7193.033  7193.030  0.500  1.699471  151.016324  27.602794  0.181483
  7194.803  7194.790  0.500  1.695064  151.162596  27.751566  0.179138
  7196.587  7196.580  0.500  1.691382  151.156247  27.852750  0.183867
  7198.390  7198.380  0.500  1.688394  151.123263  27.930017  0.194036
  7200.217  7200.210  0.500  1.685802  151.084903  27.995398  0.207763
  7202.061  7202.050  0.500  1.683219  151.031113  28.057792  0.224686
  7203.918  7203.910  0.500  1.680641  151.012323  28.126720  0.243838
  7205.797  7205.790  0.500  1.677870  150.956911  28.194427  0.262481
  7207.699  7207.690  0.500  1.675308  150.917444  28.259375  0.270745
  7209.622  7209.610  0.500  1.672734  150.844048  28.318415  0.262110
  7211.555  7211.550  0.500  1.670259  150.817789  28.383653  0.235994
  7213.527  7213.510  0.500  1.667936  150.768252  28.440335  0.199668
  7215.486  7215.480  0.500  1.665733  150.716795  28.493317  0.167368
  7217.491  7217.480  0.500  1.663119  150.669304  28.558885  0.144083
  7219.497  7219.490  0.500  1.660240  150.616973  28.631282  0.131721
  7221.536  7221.520  0.500  1.657746  150.562086  28.692317  0.129906
  7223.588  7223.580  0.500  1.655329  150.501672  28.750202  0.138913
  7225.662  7225.650  0.500  1.652597  150.392729  28.808000  0.157019
  7227.748  7227.740  0.500  1.648570  147.779230  28.421598  0.179164
  7229.860  7229.850  0.500  1.643825  150.564687  29.095043  0.212658
  7231.995  7231.980  0.500  1.638744  150.505364  29.231743  0.246753
  7234.130  7234.120  0.500  1.633753  150.452838  29.367739  0.278019
  7236.308  7236.290  0.500  1.629699  150.403651  29.477391  0.300634
  7238.489  7238.480  0.500  1.626942  150.374630  29.553082  0.311082
  7240.697  7240.680  0.500  1.625204  150.325277  29.594772  0.309688
  7242.910  7242.900  0.500  1.624748  150.299481  29.603171  0.298658
  7245.165  7245.150  0.500  1.625317  147.513339  29.037894  0.278073
  7247.419  7247.410  0.500  1.626371  150.054699  29.507045  0.270017
  7249.701  7249.690  0.500  1.627873  150.074965  29.466731  0.264466
  7252.000  7251.990  0.500  1.629180  149.982237  29.410050  0.266835
  7254.315  7254.310  0.500  1.630151  147.495010  28.894284  0.270256
  7256.666  7256.650  0.500  1.630072  150.053720  29.397847  0.280740
  7259.010  7259.000  0.500  1.629995  149.907883  29.371546  0.278056
  7261.392  7261.380  0.500  1.630120  149.453647  29.278886  0.269286
  7263.789  7263.770  0.500  1.630404  136.032628  26.642042  0.237996
  7266.198  7266.190  0.500  1.630428  149.783132  29.334382  0.256574
  7268.634  7268.620  0.500  1.629622  150.296654  29.458688  0.250388
  7271.085  7271.070  0.500  1.627743  150.228895  29.500780  0.239008
  7273.558  7273.550  0.500  1.625135  148.737500  29.284186  0.224739
  7276.053  7276.040  0.500  1.622108  150.276753  29.676942  0.220793
  7278.564  7278.550  0.500  1.618273  150.223084  29.780343  0.217362
  7281.080  7281.070  0.500  1.613216  150.168702  29.920475  0.212346
  7283.637  7283.620  0.500  1.607403  148.856060  29.831858  0.203612
  7286.205  7286.190  0.500  1.601043  149.815079  30.215607  0.198859
  7288.779  7288.770  0.500  1.595378  149.915891  30.407727  0.197692
  7291.398  7291.380  0.500  1.590040  149.884922  30.564142  0.206198
  7294.012  7294.000  0.500  1.585217  149.852193  30.705213  0.225496
  7296.661  7296.650  0.500  1.580978  149.742980  30.813181  0.249904
  7299.322  7299.310  0.500  1.577610  149.667059  30.901467  0.274721
  7302.006  7301.990  0.500  1.575142  148.319995  30.698999  0.293228
  7304.700  7304.690  0.500  1.573372  149.802812  31.060845  0.312850
  7307.424  7307.410  0.500  1.572201  149.724864  31.081045  0.323911
  7310.166  7310.150  0.500  1.571290  149.675594  31.099142  0.328367
  7312.914  7312.900  0.500  1.571122  149.598487  31.088331  0.327875
  7315.690  7315.680  0.500  1.570431  149.537682  31.097178  0.327842
  7318.483  7318.470  0.500  1.569260  149.483603  31.122372  0.329634
  7321.307  7321.290  0.500  1.567258  149.456029  31.178996  0.331910
  7324.132  7324.120  0.500  1.564848  149.387441  31.239885  0.333438
  7326.981  7326.970  0.500  1.561861  149.331851  31.321668  0.335038
  7329.859  7329.850  0.500  1.558703  149.268895  31.407501  0.337831
  7332.755  7332.740  0.500  1.555648  149.230525  31.495480  0.344802
  7335.665  7335.650  0.500  1.552379  149.148741  31.581312  0.354041
  7338.580  7338.570  0.500  1.548740  147.710706  31.390827  0.356172
  7341.529  7341.520  0.500  1.544948  148.916718  31.767359  0.356747
  7344.504  7344.490  0.500  1.541169  148.921997  31.888777  0.345251
  7347.484  7347.470  0.500  1.537793  148.874141  31.986333  0.327735
  7350.491  7350.480  0.500  1.534784  148.820034  32.071063  0.310898
  7353.510  7353.500  0.500  1.532491  148.782441  32.136557  0.296767
  7356.562  7356.550  0.500  1.530578  148.691035  32.178316  0.284975
  7359.625  7359.610  0.500  1.528443  148.619510  32.231564  0.274856
  7362.703  7362.690  0.500  1.525762  148.502996  32.292773  0.267992
  7365.804  7365.790  0.500  1.522591  148.472736  32.388712  0.265857
  7368.919  7368.910  0.500  1.519354  148.400346  32.477909  0.270287
  7372.058  7372.050  0.500  1.516454  148.354221  32.562081  0.282255
  7375.209  7375.200  0.500  1.514143  148.289970  32.623288  0.303977
  7378.393  7378.380  0.500  1.512029  148.203670  32.673293  0.336253
  7381.581  7381.570  0.500  1.509942  148.114771  32.721923  0.372764
  7384.801  7384.790  0.500  1.508100  148.037331  32.765123  0.401112
  7388.033  7388.020  0.500  1.506168  147.991884  32.818402  0.413000
  7391.277  7391.270  0.500  1.504091  147.945480  32.876323  0.411750
  7394.556  7394.550  0.500  1.501495  147.864275  32.943706  0.404836
  7397.846  7397.840  0.500  1.498518  147.774214  33.021789  0.400870
  7401.157  7401.150  0.500  1.495213  147.681748  33.110374  0.401429
  7404.481  7404.470  0.500  1.491900  147.597096  33.201205  0.403961
  7407.829  7407.820  0.500  1.488236  147.521238  33.305965  0.404937
  7411.198  7411.190  0.500  1.484415  147.421677  33.410888  0.405366
  7414.573  7414.570  0.500  1.480311  147.347066  33.531307  0.406637
  7417.987  7417.980  0.500  1.476245  147.241120  33.643714  0.409301
  7421.408  7421.400  0.500  1.472478  147.162654  33.752706  0.416015
  7424.856  7424.850  0.500  1.468720  147.082255  33.861278  0.425885
  7428.322  7428.310  0.500  1.464987  146.980721  33.964444  0.433554
  7431.798  7431.790  0.500  1.461524  146.940771  34.073014  0.435743
  7435.301  7435.290  0.500  1.458483  147.342278  34.270156  0.435809
  7438.812  7438.810  0.500  1.455231  147.278862  34.367006  0.430302
  7442.359  7442.350  0.500  1.452097  147.130816  34.440226  0.419578
  7445.910  7445.900  0.500  1.449019  143.179088  33.618518  0.397166
  7449.493  7449.480  0.500  1.446118  147.080855  34.634986  0.400751
  7453.088  7453.080  0.500  1.443077  145.655892  34.403885  0.395158
  7456.700  7456.690  0.500  1.440270  146.871909  34.788627  0.400302
  7460.331  7460.320  0.500  1.437948  146.321395  34.738794  0.402333
  7463.985  7463.980  0.500  1.435780  146.674385  34.898193  0.410368
  7467.657  7467.650  0.500  1.433758  142.647042  34.008668  0.410621
  7471.345  7471.340  0.500  1.431188  146.612086  35.043917  0.437564
  7475.055  7475.050  0.500  1.428802  146.470556  35.093731  0.452135
  7478.794  7478.780  0.500  1.425953  146.357165  35.166591  0.463730
  7482.533  7482.520  0.500  1.422914  146.235280  35.244255  0.475219
  7486.305  7486.290  0.500  1.419298  146.116229  35.343148  0.489388
  7490.088  7490.080  0.500  1.415858  145.998601  35.436373  0.504278
  7493.892  7493.880  0.500  1.412077  145.898066  35.546127  0.515847
  7497.724  7497.710  0.500  1.408405  145.799166  35.652708  0.521067
  7501.558  7501.550  0.500  1.405007  145.682063  35.745340  0.520301
  7505.422  7505.410  0.500  1.401485  145.552552  35.839544  0.518510
  7509.309  7509.290  0.500  1.398023  145.419066  35.930864  0.519234
  7513.206  7513.190  0.500  1.394537  145.296394  36.025907  0.523235
  7517.128  7517.110  0.500  1.390981  145.155172  36.119135  0.528515
  7521.061  7521.050  0.500  1.387439  145.040044  36.218542  0.533596
  7525.035  7525.010  0.500  1.383832  144.878457  36.308896  0.535868
  7529.012  7528.980  0.500  1.380567  144.786685  36.404567  0.536683
  7532.999  7532.980  0.500  1.377589  144.639864  36.476126  0.537610
  7537.013  7536.990  0.500  1.374689  144.495203  36.545472  0.540572
  7541.038  7541.030  0.500  1.371815  144.361878  36.616820  0.545490
  7545.098  7545.080  0.500  1.368800  144.220397  36.691426  0.550833
  7549.164  7549.150  0.500  1.365652  144.094161  36.774888  0.555299
  7553.261  7553.240  0.500  1.362569  143.950478  36.851646  0.555772
  7557.368  7557.350  0.500  1.359303  143.828109  36.940765  0.552935
  7561.491  7561.480  0.500  1.356290  143.659711  37.008857  0.549730
  7565.651  7565.630  0.500  1.353179  143.526245  37.089683  0.549835
  7569.792  7569.790  0.500  1.349720  143.355321  37.173891  0.555059
  7573.966  7573.980  0.500  1.346117  143.247772  37.280053  0.566255
  7578.191  7578.180  0.500  1.342520  143.072506  37.368644  0.580831
  7582.424  7582.410  0.500  1.338847  142.903684  37.461879  0.596395
  7586.662  7586.650  0.500  1.335396  142.731613  37.546105  0.608225
  7590.930  7590.910  0.500  1.331600  142.538092  37.637822  0.616892
  7595.212  7595.190  0.500  1.327895  142.334228  37.723474  0.621945
  7599.504  7599.490  0.500  1.324303  142.068871  37.788664  0.625074
  7603.833  7603.810  0.500  1.320869  141.476448  37.760543  0.627830
  7608.172  7608.150  0.500  1.317419  141.292689  37.841827  0.635675
  7612.519  7612.510  0.500  1.314047  141.042415  37.902387  0.644882
  7616.908  7616.890  0.500  1.310702  141.036507  38.027759  0.652632
  7621.294  7621.280  0.500  1.307499  141.123340  38.173246  0.657036
  7625.714  7625.700  0.500  1.304127  141.129229  38.303778  0.659734
  7630.146  7630.130  0.500  1.300691  141.028424  38.408179  0.664268
  7634.596  7634.580  0.500  1.297535  140.867978  38.485734  0.671693
  7639.071  7639.050  0.500  1.294513  140.697730  38.555573  0.681963
  7643.556  7643.540  0.500  1.291320  140.553478  38.639240  0.692455
  7648.072  7648.050  0.500  1.288197  140.382109  38.712845  0.701846
  7652.604  7652.580  0.500  1.285045  140.203144  38.785526  0.708077
  7657.148  7657.130  0.500  1.281753  140.020818  38.862828  0.714001
  7661.713  7661.700  0.500  1.278593  139.822889  38.930732  0.717064
  7666.294  7666.280  0.500  1.274734  139.665216  39.037168  0.719585
  7670.908  7670.890  0.500  1.271006  139.475075  39.129639  0.721244
  7675.526  7675.510  0.500  1.267763  139.280612  39.202000  0.722327
  7680.176  7680.160  0.500  1.264095  139.079454  39.289234  0.724165
  7684.836  7684.820  0.500  1.260199  138.784920  39.359075  0.727873
  7689.511  7689.500  0.500  1.256603  138.924978  39.540710  0.737154
  7694.212  7694.200  0.500  1.253123  138.658826  39.602552  0.745826
  7698.924  7698.920  0.500  1.249535  138.429132  39.679072  0.755228
  7703.672  7703.660  0.500  1.245812  138.159157  39.749364  0.763906
  7708.419  7708.410  0.500  1.242271  138.067430  39.863911  0.773681
  7713.198  7713.190  0.500  1.238750  137.797140  39.926187  0.783607
  7718.003  7717.990  0.500  1.235223  137.544240  39.993731  0.793938
  7722.811  7722.800  0.500  1.231683  137.427015  40.101366  0.804035
  7727.649  7727.630  0.500  1.228144  137.115666  40.152345  0.811000
  7732.506  7732.490  0.500  1.224614  136.990345  40.257494  0.818149
  7737.374  7737.360  0.500  1.221112  136.716147  40.317873  0.824601
  7742.264  7742.250  0.500  1.217670  136.780174  40.475844  0.832995
  7747.180  7747.160  0.500  1.214078  136.524079  40.545427  0.840267
  7752.106  7752.090  0.500  1.210576  136.282816  40.615765  0.846664
  7757.049  7757.030  0.500  1.207146  136.070845  40.691909  0.853813
  7762.021  7762.000  0.500  1.203737  135.870490  40.770747  0.863296
  7766.987  7766.990  0.500  1.200401  135.647835  40.839973  0.872889
  7772.008  7771.990  0.500  1.196657  135.451591  40.933829  0.883574
  7777.024  7777.020  0.500  1.193096  135.236777  41.014719  0.893324
  7782.058  7782.060  0.500  1.189551  134.920694  41.064181  0.901332
  7787.118  7787.120  0.500  1.186010  134.831240  41.182527  0.910285
  7792.206  7792.200  0.500  1.182346  134.632055  41.272640  0.918190
  7797.300  7797.300  0.500  1.178662  134.424197  41.360993  0.925951
  7802.422  7802.420  0.500  1.175172  134.225225  41.444151  0.932449
  7807.558  7807.560  0.500  1.171582  134.016842  41.528664  0.938583
  7812.723  7812.720  0.500  1.167828  133.812035  41.621138  0.945434
  7817.900  7817.900  0.500  1.164065  133.593156  41.709711  0.951947
  7823.094  7823.090  0.500  1.160551  133.386422  41.791780  0.960749
  7828.319  7828.310  0.500  1.157222  133.174629  41.864534  0.968328
  7833.549  7833.540  0.500  1.153463  132.956538  41.953379  0.975809
  7838.796  7838.790  0.500  1.149828  132.437791  41.941899  0.982130
  7844.077  7844.060  0.500  1.146319  132.517648  42.114710  0.993049
  7849.360  7849.350  0.500  1.142583  132.262756  42.191004  1.002177
  7854.669  7854.660  0.500  1.138969  131.133944  41.982392  1.004815
  7860.001  7859.990  0.500  1.135371  131.829965  42.357368  1.021898
  7865.357  7865.340  0.500  1.131969  131.617995  42.433335  1.032812
  7870.725  7870.710  0.500  1.128619  131.371391  42.495989  1.043286
  7876.098  7876.090  0.500  1.124941  131.152306  42.581446  1.054535
  7881.529  7881.500  0.500  1.121303  130.910168  42.657733  1.065074
  7886.931  7886.920  0.500  1.117496  130.714426  42.756385  1.076581
  7892.391  7892.370  0.500  1.114105  130.485294  42.826434  1.086382
  7897.851  7897.830  0.500  1.110398  130.154728  42.876603  1.095593
  7903.329  7903.310  0.500  1.106632  129.952708  42.971548  1.107137
  7908.824  7908.810  0.500  1.103076  129.724625  43.048957  1.117440
  7914.347  7914.330  0.500  1.099418  129.484265  43.126641  1.127421
  7919.884  7919.870  0.500  1.096042  129.229974  43.187506  1.137364
  7925.432  7925.420  0.500  1.092150  128.975428  43.270534  1.147649
  7931.022  7931.000  0.500  1.088591  128.624761  43.306751  1.156826
  7936.623  7936.600  0.500  1.084944  128.271081  43.345468  1.164861
  7942.233  7942.210  0.500  1.081177  128.291472  43.515973  1.176280
  7947.862  7947.850  0.500  1.077440  127.974721  43.571055  1.184202
  7953.525  7953.500  0.500  1.073748  127.630035  43.614408  1.193008
  7959.154  7959.170  0.500  1.070284  127.338463  43.665764  1.202485
  7964.840  7964.860  0.500  1.066765  127.036625  43.715835  1.211474
