# XDI/1.0 BlueSky/1.10.0 BMM/2023-1.0-py310-tiled
# Beamline.name: BMM (06BM) -- Beamline for Materials Measurement (NIST)
# Beamline.xray_source: NSLS-II three-pole wiggler
# Beamline.collimation: paraboloid mirror, 5 nm Rh on 30 nm Pt
# Beamline.focusing: not in use
# Beamline.harmonic_rejection: flat mirror, Si stripe, pitch = 7.0 mrad relative to beam
# Beamline.software: Bluesky 1.10.0, Ophyd 1.7.0, DataBroker 2.0.0b13, Python 3.10.8, 2023-1.0-py310-tiled
# Detector.I0: 10 cm N2
# Detector.I1: 25 cm N2
# Detector.I2: 25 cm N2
# Element.symbol: Fe
# Element.edge: K
# Element.reference: Fe
# Element.reference_material: Fe foil
# Facility.name: NSLS-II
# Facility.energy: 3.0
# Facility.current: 400.3
# Facility.mode: top-off
# Facility.GUP: 123456
# Facility.SAF: 301027
# Facility.cycle: 2023-2
# Mono.name: Si(111)
# Mono.d_spacing: 3.1351860
# Mono.encoder_resolution: 0.0000050 deg/ct
# Mono.angle_offset: 16.0754326 deg
# Mono.scan_mode: pseudo channel cut
# Mono.scan_type: step
# Mono.direction: forward in energy
# Sample.name: Mg2FeBO5
# Sample.prep: PEG pellet
# Sample.x: 142.329 mm
# Sample.y: 114.126 mm
# Sample.SDD_position: 205.000 mm
# Scan.experimenters: Bruce Ravel
# Scan.edge_energy: 7112.0
# Scan.start_time: 2023-05-05T20:47:37
# Scan.end_time: 2023-05-05T20:55:52
# Scan.transient_id: 74631
# Scan.uid: d33c9957-3997-43d3-a6a7-6366e3fd1f26
# Scan.plot_hint: ln(I0/It)  --  ln($5/$6)
# Column.1: energy eV
# Column.2: requested_energy eV
# Column.3: measurement_time seconds
# Column.4: xmu 
# Column.5: I0 nA
# Column.6: It nA
# Column.7: Ir nA
# ///////////
# courtesy Martin Stennett, University of Sheffield
# -----------
# energy  requested_energy  measurement_time  xmu  I0  It  Ir
  6912.001  6912.000  0.500  1.398104  155.087148  38.316617  7.186278
  6921.914  6922.000  0.500  1.389215  154.948321  38.624119  7.294943
  6932.040  6932.000  0.500  1.380380  154.891475  38.952571  7.409612
  6942.019  6942.000  0.500  1.371440  154.886646  39.301159  7.529380
  6951.993  6952.000  0.500  1.363204  154.844059  39.615247  7.641205
  6962.000  6962.000  0.500  1.354238  154.822570  39.966489  7.763159
  6972.012  6972.000  0.500  1.345742  154.821377  40.307193  7.883921
  6982.025  6982.000  0.500  1.337302  154.788762  40.640259  8.003759
  6992.014  6992.000  0.500  1.328724  154.755249  40.981510  8.125214
  7002.013  7002.000  0.500  1.320028  154.708997  41.327094  8.249313
  7012.006  7012.000  0.500  1.311792  154.663922  41.656725  8.369252
  7022.016  7022.000  0.500  1.303661  154.583664  41.975024  8.488433
  7032.010  7032.000  0.500  1.295232  154.525117  42.314296  8.612864
  7042.013  7042.000  0.500  1.287085  154.442769  42.637673  8.732984
  7052.007  7052.000  0.500  1.278972  154.339416  42.956233  8.849191
  7062.006  7062.000  0.500  1.271025  153.624192  43.098314  8.928249
  7072.009  7072.000  0.500  1.263233  154.113684  43.573880  9.071000
  7081.976  7082.000  0.500  1.255899  154.027325  43.869992  9.165229
  7083.981  7084.000  0.500  1.254538  153.802525  43.865667  9.168844
  7085.982  7086.000  0.500  1.253117  153.936781  43.966368  9.191435
  7087.981  7088.000  0.500  1.251925  153.934962  44.018290  9.205360
  7089.985  7090.000  0.500  1.250662  153.926162  44.071384  9.215859
  7091.993  7092.000  0.500  1.249658  153.889995  44.105314  9.218923
  7093.987  7094.000  0.500  1.248350  153.853746  44.152623  9.223953
  7096.513  7096.000  0.500  1.247050  153.821761  44.200878  9.219947
  7097.978  7098.000  0.500  1.246237  153.843574  44.243082  9.214710
  7100.001  7100.000  0.500  1.245379  153.793726  44.266710  9.193571
  7102.006  7102.000  0.500  1.244712  153.748121  44.283124  9.159207
  7102.288  7102.300  0.500  1.244525  153.747368  44.291190  9.153460
  7102.587  7102.600  0.500  1.244667  153.741843  44.283323  9.144571
  7102.887  7102.900  0.500  1.244418  153.728714  44.290550  9.137370
  7103.195  7103.200  0.500  1.244299  153.722914  44.294137  9.128678
  7103.488  7103.500  0.500  1.244584  153.706024  44.276667  9.116267
  7103.785  7103.800  0.500  1.244369  153.699841  44.284386  9.107487
  7104.084  7104.100  0.500  1.244494  153.698562  44.278501  9.095585
  7104.386  7104.400  0.500  1.244450  153.685236  44.276613  9.083415
  7104.686  7104.700  0.500  1.244459  153.667951  44.271237  9.068008
  7104.985  7105.000  0.500  1.244494  153.683105  44.274046  9.054657
  7105.289  7105.300  0.500  1.244659  153.678662  44.265453  9.036621
  7105.587  7105.600  0.500  1.244507  153.662422  44.267525  9.019974
  7105.890  7105.900  0.500  1.244740  153.649159  44.253398  8.998016
  7106.190  7106.200  0.500  1.244713  153.624543  44.247498  8.974740
  7106.490  7106.500  0.500  1.244726  153.629019  44.248214  8.952827
  7106.792  7106.800  0.500  1.244656  153.614897  44.247246  8.926922
  7107.089  7107.100  0.500  1.245137  153.606190  44.223444  8.893930
  7107.385  7107.400  0.500  1.245142  153.598192  44.220918  8.860386
  7107.691  7107.700  0.500  1.245220  153.593551  44.216150  8.822184
  7107.989  7108.000  0.500  1.245394  153.594482  44.208719  8.777390
  7108.291  7108.300  0.500  1.245733  153.586436  44.191406  8.723134
  7108.589  7108.600  0.500  1.245943  153.565470  44.176082  8.660785
  7108.891  7108.900  0.500  1.246290  153.548529  44.155900  8.587236
  7109.195  7109.200  0.500  1.246810  153.545821  44.132184  8.494930
  7109.493  7109.500  0.500  1.247239  153.532507  44.109422  8.379186
  7109.795  7109.800  0.500  1.247815  153.518302  44.079920  8.225656
  7110.095  7110.100  0.500  1.248864  153.486559  44.024626  8.011883
  7110.395  7110.400  0.500  1.249841  153.482384  43.980438  7.715646
  7110.701  7110.700  0.500  1.251495  153.442426  43.896333  7.293716
  7110.997  7111.000  0.500  1.253341  153.425334  43.810479  6.763311
  7111.295  7111.300  0.500  1.256131  153.399620  43.681083  6.120609
  7111.593  7111.600  0.500  1.259446  153.373759  43.529179  5.455512
  7111.891  7111.900  0.500  1.263511  153.342258  43.343718  4.847464
  7112.194  7112.200  0.500  1.268221  153.309884  43.130915  4.364456
  7112.492  7112.500  0.500  1.273784  153.282380  42.883942  4.001463
  7112.790  7112.800  0.500  1.279824  153.252883  42.617531  3.724405
  7113.092  7113.100  0.500  1.286108  153.246969  42.348906  3.494636
  7113.397  7113.400  0.500  1.291138  153.226702  42.130859  3.297277
  7113.699  7113.700  0.500  1.293664  153.206562  42.019065  3.128024
  7114.002  7114.000  0.500  1.293926  153.186801  42.002618  2.981036
  7114.296  7114.300  0.500  1.293330  153.180457  42.025908  2.857227
  7114.598  7114.600  0.500  1.292231  153.170317  42.069363  2.754484
  7114.899  7114.900  0.500  1.291067  153.161958  42.116066  2.677112
  7115.204  7115.200  0.500  1.290228  153.162503  42.151535  2.617531
  7115.498  7115.500  0.500  1.289538  153.130141  42.171753  2.577554
  7115.796  7115.800  0.500  1.290040  153.131860  42.151053  2.545891
  7116.097  7116.100  0.500  1.291218  153.125021  42.099517  2.517801
  7116.391  7116.400  0.500  1.293631  153.100898  41.991450  2.487755
  7116.698  7116.700  0.500  1.297889  153.096133  41.811750  2.442032
  7116.996  7117.000  0.500  1.302925  153.075745  41.596181  2.379770
  7117.295  7117.300  0.500  1.309069  153.065561  41.338638  2.292630
  7117.598  7117.600  0.500  1.317028  153.051875  41.007247  2.176694
  7117.900  7117.900  0.500  1.327064  153.045542  40.596093  2.037735
  7118.203  7118.200  0.500  1.339669  153.037686  40.085525  1.879594
  7118.506  7118.500  0.500  1.354617  153.015534  39.485074  1.719586
  7118.798  7118.800  0.500  1.371829  152.990861  38.804990  1.566209
  7119.099  7119.100  0.500  1.392071  152.969097  38.022007  1.418164
  7119.402  7119.400  0.500  1.415147  152.953951  37.150970  1.279657
  7119.703  7119.700  0.500  1.440101  152.944479  36.233118  1.151680
  7119.995  7120.000  0.500  1.467717  152.918166  35.240155  1.031558
  7120.296  7120.300  0.500  1.497505  152.902260  34.202330  0.918685
  7120.595  7120.600  0.500  1.529348  152.876195  33.124728  0.813204
  7120.894  7120.900  0.500  1.561865  152.857976  32.061112  0.720955
  7121.199  7121.200  0.500  1.594377  152.846479  31.033177  0.641862
  7121.500  7121.500  0.500  1.625700  152.793317  30.065742  0.576551
  7121.797  7121.800  0.500  1.656214  152.791399  29.161792  0.522022
  7122.098  7122.100  0.500  1.686402  152.774587  28.291500  0.474670
  7122.401  7122.400  0.500  1.715255  152.745708  27.481681  0.434897
  7122.705  7122.700  0.500  1.743154  152.716018  26.720370  0.400331
  7123.001  7123.000  0.500  1.769790  152.681492  26.012156  0.371085
  7123.301  7123.300  0.500  1.796549  152.663414  25.322319  0.344774
  7123.600  7123.600  0.500  1.823287  152.633075  24.649344  0.322202
  7123.901  7123.900  0.500  1.850678  152.595363  23.977399  0.301812
  7124.206  7124.200  0.500  1.879502  152.565693  23.291602  0.282597
  7124.495  7124.500  0.500  1.908688  152.529132  22.616216  0.265141
  7124.796  7124.800  0.500  1.939687  152.683428  21.948081  0.248728
  7125.097  7125.100  0.500  1.969788  152.995851  21.340848  0.234028
  7125.399  7125.400  0.500  1.999023  152.954786  20.720416  0.219963
  7125.702  7125.700  0.500  2.026036  152.920879  20.163714  0.207636
  7125.999  7126.000  0.500  2.050519  152.871365  19.669666  0.196696
  7126.301  7126.300  0.500  2.073567  152.821197  19.215202  0.186069
  7126.607  7126.600  0.500  2.095851  152.785772  18.787395  0.175861
  7126.904  7126.900  0.500  2.117852  152.754830  18.374845  0.166122
  7127.203  7127.200  0.500  2.140946  152.716653  17.950866  0.156581
  7127.503  7127.500  0.500  2.165813  152.683575  17.506192  0.146491
  7127.798  7127.800  0.500  2.191816  152.632433  17.051129  0.136956
  7128.099  7128.100  0.500  2.219914  152.583025  16.573325  0.127274
  7128.401  7128.400  0.500  2.248974  152.554760  16.095660  0.117744
  7128.705  7128.700  0.500  2.279195  152.525068  15.613469  0.108895
  7128.996  7129.000  0.500  2.308986  152.484956  15.151202  0.100388
  7129.295  7129.300  0.500  2.338107  152.446517  14.712632  0.092585
  7129.601  7129.600  0.500  2.364361  152.396733  14.326717  0.085870
  7129.899  7129.900  0.500  2.385139  152.365071  14.029190  0.080412
  7130.203  7130.200  0.500  2.399387  152.315155  13.826191  0.076217
  7130.502  7130.500  0.500  2.407107  152.268555  13.715671  0.073443
  7130.802  7130.800  0.500  2.409272  152.204966  13.680296  0.071751
  7131.104  7131.100  0.500  2.407357  152.195335  13.705642  0.071360
  7131.404  7131.400  0.500  2.402037  152.150682  13.774715  0.071951
  7131.706  7131.700  0.500  2.394896  152.090946  13.867987  0.073572
  7131.999  7132.000  0.500  2.386629  152.072167  13.981383  0.076251
  7132.297  7132.300  0.500  2.376826  152.053742  14.117398  0.079681
  7132.599  7132.600  0.500  2.366151  152.057970  14.269307  0.083549
  7132.901  7132.900  0.500  2.353746  152.038099  14.445535  0.088185
  7133.201  7133.200  0.500  2.339774  152.035047  14.648481  0.093417
  7133.498  7133.500  0.500  2.324608  152.024294  14.871281  0.099108
  7133.796  7133.800  0.500  2.308644  152.015893  15.109762  0.104960
  7134.100  7134.100  0.500  2.291714  151.980447  15.364171  0.111001
  7134.403  7134.400  0.500  2.276173  151.951299  15.601806  0.116732
  7134.705  7134.700  0.500  2.261668  151.941477  15.828738  0.122131
  7135.001  7135.000  0.500  2.248668  151.938314  16.035520  0.126657
  7135.305  7135.300  0.500  2.236830  151.916202  16.224115  0.131568
  7135.603  7135.600  0.500  2.226764  151.904416  16.386978  0.135333
  7135.903  7135.900  0.500  2.218317  151.920572  16.527748  0.138427
  7136.203  7136.200  0.500  2.211600  151.921822  16.639284  0.140745
  7136.499  7136.500  0.500  2.206217  151.890512  16.725638  0.142584
  7136.799  7136.800  0.500  2.201844  151.875141  16.797244  0.143593
  7136.992  7137.000  0.500  2.199410  151.852681  16.835693  0.143992
  7138.000  7137.990  0.500  2.186666  151.848396  17.051138  0.143361
  7139.003  7138.990  0.500  2.171748  151.793188  17.301120  0.139299
  7140.030  7140.010  0.500  2.154555  151.796807  17.601562  0.134899
  7141.085  7141.060  0.500  2.138856  151.803342  17.880844  0.132391
  7142.108  7142.120  0.500  2.126756  151.787933  18.096685  0.133314
  7143.190  7143.200  0.500  2.116555  151.778235  18.281051  0.136443
  7144.294  7144.300  0.500  2.105878  151.762548  18.475374  0.140228
  7145.420  7145.420  0.500  2.091002  151.747617  18.750428  0.141851
  7146.557  7146.560  0.500  2.069446  151.722750  19.155870  0.139633
  7147.713  7147.710  0.500  2.043377  151.723184  19.661853  0.134544
  7148.892  7148.890  0.500  2.015588  151.710501  20.214209  0.129031
  7150.085  7150.080  0.500  1.991909  151.711650  20.698747  0.125799
  7151.295  7151.300  0.500  1.974082  151.710540  21.070881  0.124514
  7152.540  7152.530  0.500  1.961655  151.705104  21.333602  0.123300
  7153.784  7153.780  0.500  1.953089  151.706669  21.517363  0.123080
  7155.047  7155.050  0.500  1.947780  151.681770  21.628344  0.124714
  7156.344  7156.340  0.500  1.945286  151.655777  21.678638  0.127457
  7157.650  7157.650  0.500  1.945884  151.623794  21.661101  0.129266
  7158.973  7158.980  0.500  1.949009  151.622315  21.593318  0.129678
  7160.332  7160.330  0.500  1.956067  151.600195  21.438312  0.129141
  7161.707  7161.700  0.500  1.965184  151.556592  21.237637  0.128954
  7163.082  7163.080  0.500  1.974931  151.521981  21.026831  0.129588
  7164.497  7164.490  0.500  1.984450  151.469923  20.820482  0.130942
  7165.915  7165.910  0.500  1.993873  151.416915  20.617989  0.132048
  7167.355  7167.350  0.500  2.002829  151.369851  20.427819  0.132493
  7168.816  7168.810  0.500  2.012793  151.365090  20.224643  0.132815
  7170.294  7170.290  0.500  2.023155  151.336606  20.012387  0.133725
  7171.797  7171.790  0.500  2.034874  151.307732  19.775460  0.135941
  7173.323  7173.310  0.500  2.045026  151.274147  19.571368  0.140700
  7174.851  7174.850  0.500  2.053866  151.243518  19.395197  0.146633
  7176.418  7176.410  0.500  2.060835  151.220861  19.257603  0.154178
  7177.987  7177.980  0.500  2.065558  151.183661  19.162159  0.161851
  7179.592  7179.580  0.500  2.069997  151.162136  19.074578  0.166617
  7181.193  7181.190  0.500  2.073638  151.131598  19.001408  0.167391
  7182.832  7182.830  0.500  2.075184  151.089922  18.966823  0.165517
  7184.496  7184.480  0.500  2.074410  151.049325  18.976401  0.162239
  7186.157  7186.150  0.500  2.071731  151.024493  19.024190  0.156639
  7187.844  7187.840  0.500  2.068190  150.987321  19.086960  0.149092
  7189.557  7189.550  0.500  2.063941  150.945160  19.162883  0.141601
  7191.290  7191.280  0.500  2.058963  149.449954  19.067745  0.132657
  7193.048  7193.030  0.500  2.053055  150.601236  19.328502  0.127363
  7194.801  7194.790  0.500  2.046042  150.782987  19.488007  0.125620
  7196.591  7196.580  0.500  2.037892  150.753565  19.643653  0.129080
  7198.390  7198.380  0.500  2.029040  150.711074  19.812728  0.136779
  7200.226  7200.210  0.500  2.019737  150.651833  19.990042  0.147548
  7202.059  7202.050  0.500  2.010292  150.601882  20.173048  0.160628
  7203.922  7203.910  0.500  2.001897  150.558480  20.337266  0.174933
  7205.795  7205.790  0.500  1.994510  150.522998  20.483208  0.189454
  7207.703  7207.690  0.500  1.989199  150.484537  20.587027  0.196854
  7209.616  7209.610  0.500  1.985563  150.422112  20.653450  0.191538
  7211.562  7211.550  0.500  1.982881  150.382731  20.703505  0.172744
  7213.514  7213.510  0.500  1.980553  150.323210  20.743528  0.147002
  7215.504  7215.480  0.500  1.978055  150.254237  20.785873  0.122771
  7217.463  7217.480  0.500  1.976172  150.176698  20.814305  0.105637
  7219.486  7219.490  0.500  1.974364  150.124052  20.844673  0.095908
  7221.511  7221.520  0.500  1.972769  150.055031  20.868328  0.093999
  7223.584  7223.580  0.500  1.971219  149.996367  20.892548  0.100293
  7225.649  7225.650  0.500  1.969798  149.838594  20.900238  0.112688
  7227.748  7227.740  0.500  1.968227  147.247952  20.571174  0.128220
  7229.864  7229.850  0.500  1.966096  150.034461  21.005169  0.152416
  7231.989  7231.980  0.500  1.963889  149.999688  21.046705  0.175990
  7234.134  7234.120  0.500  1.961576  149.955691  21.089263  0.198182
  7236.299  7236.290  0.500  1.959857  149.915464  21.119869  0.214395
  7238.494  7238.480  0.500  1.958959  149.876216  21.133325  0.221951
  7240.688  7240.680  0.500  1.958263  149.819906  21.140089  0.220945
  7242.910  7242.900  0.500  1.957805  149.786006  21.144988  0.213067
  7245.156  7245.150  0.500  1.958133  146.960378  20.739299  0.198641
  7247.419  7247.410  0.500  1.959692  149.491862  21.063674  0.192699
  7249.699  7249.690  0.500  1.961682  149.510627  21.024442  0.188481
  7252.007  7251.990  0.500  1.963423  149.388964  20.970781  0.189831
  7254.315  7254.310  0.500  1.964844  147.124685  20.623608  0.192158
  7256.659  7256.650  0.500  1.965743  149.513349  20.939613  0.199466
  7259.006  7259.000  0.500  1.965792  149.361722  20.917353  0.197725
  7261.388  7261.380  0.500  1.965143  148.940330  20.871885  0.191859
  7263.778  7263.770  0.500  1.963094  138.615316  19.464814  0.173918
  7266.201  7266.190  0.500  1.960417  149.087314  20.991448  0.183371
  7268.634  7268.620  0.500  1.956576  149.698537  21.158625  0.179702
  7271.076  7271.070  0.500  1.952497  149.644691  21.237457  0.171900
  7273.561  7273.550  0.500  1.948631  148.508781  21.157888  0.162146
  7276.049  7276.040  0.500  1.945289  149.681354  21.396331  0.159011
  7278.559  7278.550  0.500  1.941943  149.617783  21.458936  0.156627
  7281.083  7281.070  0.500  1.938428  149.575163  21.528349  0.152536
  7283.626  7283.620  0.500  1.933931  148.569983  21.480066  0.146639
  7286.202  7286.190  0.500  1.928559  149.195450  21.686679  0.142797
  7288.779  7288.770  0.500  1.922354  149.296310  21.836409  0.141507
  7291.389  7291.380  0.500  1.916041  149.240995  21.966560  0.147644
  7294.014  7294.000  0.500  1.910572  149.226576  22.084898  0.161245
  7296.666  7296.650  0.500  1.905877  149.169315  22.180318  0.178783
  7299.318  7299.310  0.500  1.902260  149.038832  22.241205  0.196420
  7302.003  7301.990  0.500  1.899002  147.299323  22.053356  0.209988
  7304.698  7304.690  0.500  1.895957  149.226622  22.410045  0.225134
  7307.422  7307.410  0.500  1.893053  149.698513  22.546296  0.234317
  7310.161  7310.150  0.500  1.890383  149.623398  22.595215  0.238033
  7312.916  7312.900  0.500  1.888039  149.558571  22.638425  0.238363
  7315.692  7315.680  0.500  1.886363  149.491670  22.666270  0.238589
  7318.477  7318.470  0.500  1.885009  149.418374  22.685843  0.239733
  7321.302  7321.290  0.500  1.883945  149.376654  22.703666  0.241217
  7324.134  7324.120  0.500  1.882702  149.317541  22.722905  0.242169
  7326.983  7326.970  0.500  1.881143  149.227098  22.744567  0.242658
  7329.859  7329.850  0.500  1.879165  149.188125  22.783654  0.244371
  7332.753  7332.740  0.500  1.876472  149.133793  22.836766  0.249271
  7335.663  7335.650  0.500  1.873751  149.079023  22.890577  0.255835
  7338.582  7338.570  0.500  1.870769  147.871689  22.772999  0.257691
  7341.532  7341.520  0.500  1.867962  148.857685  22.989294  0.257943
  7344.500  7344.490  0.500  1.864792  148.862133  23.062978  0.249545
  7347.486  7347.470  0.500  1.861034  148.791511  23.138818  0.236874
  7350.493  7350.480  0.500  1.856990  148.731831  23.223277  0.224970
  7353.512  7353.500  0.500  1.853040  148.670510  23.305581  0.214787
  7356.559  7356.550  0.500  1.849732  148.590914  23.370280  0.206676
  7359.623  7359.610  0.500  1.846214  148.511885  23.440157  0.199687
  7362.703  7362.690  0.500  1.842915  148.466306  23.510400  0.194808
  7365.799  7365.790  0.500  1.840278  148.367585  23.556815  0.193207
  7368.921  7368.910  0.500  1.837688  148.322798  23.610767  0.195686
  7372.065  7372.050  0.500  1.835187  148.244795  23.657452  0.204689
  7375.218  7375.200  0.500  1.832791  148.168773  23.702043  0.220033
  7378.393  7378.380  0.500  1.830113  148.097254  23.754129  0.243550
  7381.584  7381.570  0.500  1.827257  148.023677  23.810225  0.270435
  7384.801  7384.790  0.500  1.824112  147.960780  23.875073  0.291794
  7388.026  7388.020  0.500  1.821139  147.873391  23.932020  0.300463
  7391.279  7391.270  0.500  1.817675  147.799201  24.003022  0.299932
  7394.561  7394.550  0.500  1.814210  147.711551  24.072043  0.295487
  7397.848  7397.840  0.500  1.810408  147.631643  24.150677  0.292427
  7401.157  7401.150  0.500  1.806613  147.548600  24.228874  0.293383
  7404.483  7404.470  0.500  1.802725  147.454156  24.307688  0.295212
  7407.824  7407.820  0.500  1.799021  147.373762  24.384577  0.296135
  7411.198  7411.190  0.500  1.795355  147.287359  24.459796  0.296269
  7414.580  7414.570  0.500  1.791453  147.175472  24.536765  0.297020
  7417.989  7417.980  0.500  1.787361  147.083941  24.622051  0.299132
  7421.401  7421.400  0.500  1.783384  146.996040  24.705386  0.303938
  7424.856  7424.850  0.500  1.779816  146.887091  24.775337  0.310830
  7428.315  7428.310  0.500  1.776299  146.815339  24.850476  0.316641
  7431.805  7431.790  0.500  1.772984  146.701165  24.913594  0.318025
  7435.303  7435.290  0.500  1.769891  146.623074  24.977472  0.317039
  7438.828  7438.810  0.500  1.766922  146.471235  25.025803  0.312971
  7442.359  7442.350  0.500  1.764135  146.336038  25.072475  0.304917
  7445.912  7445.900  0.500  1.760965  142.442566  24.482883  0.288930
  7449.488  7449.480  0.500  1.758493  146.247008  25.198995  0.291069
  7453.088  7453.080  0.500  1.755796  144.957309  25.044227  0.286973
  7456.697  7456.690  0.500  1.752696  146.053899  25.312038  0.290625
  7460.333  7460.320  0.500  1.749413  145.446346  25.289618  0.292238
  7463.992  7463.980  0.500  1.745822  145.832618  25.447998  0.298612
  7467.662  7467.650  0.500  1.742078  141.812365  24.839299  0.299377
  7471.350  7471.340  0.500  1.738499  145.753716  25.621173  0.319254
  7475.063  7475.050  0.500  1.735077  145.628266  25.686873  0.330317
  7478.791  7478.780  0.500  1.731741  145.508803  25.751581  0.339086
  7482.533  7482.520  0.500  1.728882  145.356226  25.798227  0.347231
  7486.298  7486.290  0.500  1.725642  145.182422  25.850999  0.357263
  7490.091  7490.080  0.500  1.722044  145.106472  25.930604  0.368335
  7493.892  7493.880  0.500  1.718483  145.007770  26.005401  0.376717
  7497.724  7497.710  0.500  1.714884  144.891558  26.078251  0.380298
  7501.565  7501.550  0.500  1.711394  144.772412  26.147909  0.379913
  7505.427  7505.410  0.500  1.707601  144.646536  26.224456  0.378709
  7509.304  7509.290  0.500  1.704347  144.522081  26.287285  0.379224
  7513.210  7513.190  0.500  1.700756  144.370301  26.354134  0.381953
  7517.133  7517.110  0.500  1.697108  144.251481  26.428694  0.385916
  7521.069  7521.050  0.500  1.693599  144.135770  26.500305  0.389726
  7525.031  7525.010  0.500  1.690094  143.995221  26.567429  0.391647
  7528.995  7528.980  0.500  1.686409  143.876593  26.643540  0.392146
  7532.994  7532.980  0.500  1.682584  143.745654  26.721304  0.393194
  7537.003  7536.990  0.500  1.678802  143.591130  26.793729  0.395711
  7541.048  7541.030  0.500  1.675322  143.451896  26.861070  0.399790
  7545.093  7545.080  0.500  1.671857  143.305415  26.926780  0.403759
  7549.181  7549.150  0.500  1.668038  143.169233  27.004125  0.407159
  7553.271  7553.240  0.500  1.664264  143.008847  27.075868  0.407767
  7557.368  7557.350  0.500  1.660559  142.888743  27.153532  0.405976
  7561.516  7561.480  0.500  1.657349  142.732698  27.211079  0.403734
  7565.666  7565.630  0.500  1.654023  142.603203  27.276985  0.403743
  7569.811  7569.790  0.500  1.650561  142.459723  27.344045  0.408176
  7574.003  7573.980  0.500  1.647070  142.317086  27.412193  0.415941
  7578.199  7578.180  0.500  1.643519  142.160410  27.479422  0.426347
  7582.432  7582.410  0.500  1.639854  142.026007  27.554221  0.437823
  7586.682  7586.650  0.500  1.636196  141.827676  27.616597  0.447204
  7590.934  7590.910  0.500  1.632546  141.662366  27.685263  0.453040
  7595.209  7595.190  0.500  1.628659  141.452282  27.751881  0.457016
  7599.511  7599.490  0.500  1.625158  141.230886  27.805610  0.459628
  7603.830  7603.810  0.500  1.621738  140.672697  27.790592  0.461436
  7608.145  7608.150  0.500  1.618327  140.468335  27.845057  0.467033
  7612.531  7612.510  0.500  1.614978  140.275188  27.900051  0.473930
  7616.915  7616.890  0.500  1.611560  140.264020  27.993336  0.479868
  7621.302  7621.280  0.500  1.607833  140.356801  28.116439  0.483117
  7625.709  7625.700  0.500  1.604201  140.408817  28.229209  0.485455
  7630.148  7630.130  0.500  1.600203  140.357056  28.331849  0.488923
  7634.573  7634.580  0.500  1.596527  140.216834  28.407794  0.494823
  7639.073  7639.050  0.500  1.592679  140.065562  28.486535  0.503136
  7643.527  7643.540  0.500  1.588882  139.897580  28.560612  0.511552
  7648.042  7648.050  0.500  1.585066  139.712620  28.631914  0.518355
  7652.566  7652.580  0.500  1.581598  139.614686  28.711230  0.523621
  7657.116  7657.130  0.500  1.578181  139.428127  28.771015  0.527944
  7661.683  7661.700  0.500  1.574540  139.278779  28.845014  0.530664
  7666.277  7666.280  0.500  1.570840  139.132343  28.921522  0.532443
  7670.881  7670.890  0.500  1.566821  138.963525  29.002754  0.533664
  7675.496  7675.510  0.500  1.563152  138.791506  29.073328  0.535072
  7680.146  7680.160  0.500  1.559300  138.631089  29.151778  0.536620
  7684.805  7684.820  0.500  1.555765  138.340703  29.193753  0.539219
  7689.523  7689.500  0.500  1.551975  138.472430  29.332503  0.546103
  7694.187  7694.200  0.500  1.548293  138.195844  29.381892  0.552940
  7698.906  7698.920  0.500  1.544522  138.005692  29.452322  0.560072
  7703.637  7703.660  0.500  1.540754  137.778454  29.514837  0.566489
  7708.412  7708.410  0.500  1.536936  137.716762  29.614471  0.573713
  7713.195  7713.190  0.500  1.533288  137.460969  29.667507  0.581422
  7717.998  7717.990  0.500  1.529435  137.239111  29.733964  0.589292
  7722.783  7722.800  0.500  1.525708  137.121570  29.819421  0.597300
  7727.611  7727.630  0.500  1.521841  136.922265  29.891441  0.602880
  7732.478  7732.490  0.500  1.518349  136.723173  29.952399  0.607825
  7737.384  7737.360  0.500  1.514380  136.430393  30.007118  0.612768
  7742.274  7742.250  0.500  1.510525  136.485884  30.135267  0.619826
  7747.175  7747.160  0.500  1.506807  136.244982  30.194120  0.625343
  7752.106  7752.090  0.500  1.503004  136.045712  30.264856  0.630578
  7757.046  7757.030  0.500  1.499483  135.827156  30.322800  0.635846
  7762.016  7762.000  0.500  1.495630  135.624150  30.394374  0.642512
  7767.002  7766.990  0.500  1.492311  135.429099  30.451557  0.650022
  7772.008  7771.990  0.500  1.488406  135.230995  30.525986  0.658273
  7777.036  7777.020  0.500  1.484553  135.012070  30.594225  0.665719
  7782.082  7782.060  0.500  1.480549  134.824509  30.674289  0.672361
  7787.144  7787.120  0.500  1.476874  134.609612  30.738150  0.678594
  7792.224  7792.200  0.500  1.473256  134.430410  30.808508  0.684624
  7797.279  7797.300  0.500  1.469432  134.214492  30.876867  0.690369
  7802.401  7802.420  0.500  1.465517  134.014127  30.951711  0.695087
  7807.538  7807.560  0.500  1.461646  133.811714  31.024838  0.700431
  7812.707  7812.720  0.500  1.457848  133.580975  31.089189  0.705330
  7817.889  7817.900  0.500  1.453793  133.402155  31.173717  0.710899
  7823.086  7823.090  0.500  1.450266  133.187603  31.233557  0.717358
  7828.306  7828.310  0.500  1.446457  132.967353  31.300901  0.723146
  7833.541  7833.540  0.500  1.442493  132.744055  31.372451  0.729096
  7838.770  7838.790  0.500  1.438468  132.241285  31.379659  0.733655
  7844.051  7844.060  0.500  1.434535  132.327712  31.523915  0.742516
  7849.337  7849.350  0.500  1.430654  132.057943  31.581991  0.749062
  7854.677  7854.660  0.500  1.426869  130.983528  31.443819  0.751525
  7859.967  7859.990  0.500  1.423135  131.661203  31.724755  0.764479
  7865.365  7865.340  0.500  1.419300  131.868480  31.896793  0.775671
  7870.677  7870.710  0.500  1.415611  131.677281  31.968239  0.784142
  7876.064  7876.090  0.500  1.411901  131.460410  32.034206  0.792189
  7881.474  7881.500  0.500  1.408123  131.234271  32.100151  0.800542
  7886.894  7886.920  0.500  1.404259  131.019225  32.171635  0.808793
  7892.349  7892.370  0.500  1.400576  130.772873  32.229634  0.816773
  7897.806  7897.830  0.500  1.396664  130.455333  32.277374  0.824330
  7903.284  7903.310  0.500  1.392842  130.280559  32.357563  0.832714
  7908.789  7908.810  0.500  1.389059  130.007543  32.412142  0.840402
  7914.347  7914.330  0.500  1.385208  129.792118  32.483299  0.848381
  7919.846  7919.870  0.500  1.381319  129.536820  32.545736  0.856035
  7925.405  7925.420  0.500  1.377498  129.262097  32.601034  0.863871
  7930.979  7931.000  0.500  1.373653  128.901277  32.635278  0.871012
  7936.583  7936.600  0.500  1.369813  128.551807  32.672028  0.877333
  7942.217  7942.210  0.500  1.366000  128.570985  32.801715  0.885085
  7947.853  7947.850  0.500  1.362136  128.231942  32.841882  0.891850
  7953.474  7953.500  0.500  1.358353  127.875449  32.874725  0.898480
  7959.149  7959.170  0.500  1.354641  127.613534  32.929385  0.906077
  7964.829  7964.860  0.500  1.350642  127.280797  32.975132  0.912792
