# XDI/1.0 BlueSky/1.10.0 BMM/2023-1.0-py310-tiled
# Beamline.name: BMM (06BM) -- Beamline for Materials Measurement (NIST)
# Beamline.xray_source: NSLS-II three-pole wiggler
# Beamline.collimation: paraboloid mirror, 5 nm Rh on 30 nm Pt
# Beamline.focusing: not in use
# Beamline.harmonic_rejection: flat mirror, Si stripe, pitch = 7.0 mrad relative to beam
# Beamline.software: Bluesky 1.10.0, Ophyd 1.7.0, DataBroker 2.0.0b13, Python 3.10.8, 2023-1.0-py310-tiled
# Detector.I0: 10 cm N2
# Detector.I1: 25 cm N2
# Detector.I2: 25 cm N2
# Element.symbol: Pr
# Element.edge: L3
# Element.reference: Pr
# Element.reference_material: Pr6O11
# Facility.name: NSLS-II
# Facility.energy: 3.0
# Facility.current: 400.9
# Facility.mode: top-off
# Facility.GUP: 301027
# Facility.SAF: 310583
# Facility.cycle: 2023-2
# Mono.name: Si(111)
# Mono.d_spacing: 3.1351860
# Mono.encoder_resolution: 0.0000050 deg/ct
# Mono.angle_offset: 16.0754326 deg
# Mono.scan_mode: pseudo channel cut
# Mono.scan_type: step
# Mono.direction: forward in energy
# Sample.name: Pr6O11
# Sample.prep: PEG pellet
# Sample.x: 109.138 mm
# Sample.y: 153.150 mm
# Sample.SDD_position: 205.000 mm
# Scan.experimenters: Bruce Ravel
# Scan.edge_energy: 5964.3
# Scan.start_time: 2023-05-28T11:44:47
# Scan.end_time: 2023-05-28T11:51:26
# Scan.transient_id: 78651
# Scan.uid: 61aaf1a6-e842-4f00-98bc-20d0127bd177
# Scan.plot_hint: ln(It/Ir)  --  ln($6/$7)
# Column.1: energy eV
# Column.2: requested_energy eV
# Column.3: measurement_time seconds
# Column.4: xmu 
# Column.5: I0 nA
# Column.6: It nA
# Column.7: Ir nA
# ///////////
# sample courtesy Martin Stennett, University of Sheffield
# -----------
# energy  requested_energy  measurement_time  xmu  I0  It  Ir
  5764.297  5764.300  0.500  3.668682  112.295877  60.267970  1.537439
  5774.327  5774.300  0.500  3.649944  112.498751  60.824270  1.580980
  5784.328  5784.300  0.500  3.631408  112.656736  61.338770  1.624182
  5794.313  5794.300  0.500  3.613117  112.786108  61.746603  1.665161
  5804.322  5804.300  0.500  3.594957  112.954099  62.252560  1.709572
  5814.307  5814.300  0.500  3.576824  112.981955  62.693573  1.753186
  5824.310  5824.300  0.500  3.558534  113.047877  63.181437  1.799442
  5834.310  5834.300  0.500  3.540827  113.084999  63.582426  1.843212
  5844.312  5844.300  0.500  3.523414  112.977933  63.896684  1.884860
  5854.287  5854.300  0.500  3.505552  112.951332  64.324966  1.931692
  5864.287  5864.300  0.500  3.487968  111.817114  64.064071  1.957985
  5874.290  5874.300  0.500  3.469437  96.108458  55.406617  1.725060
  5884.288  5884.300  0.500  3.453482  112.688625  65.398929  2.068915
  5894.287  5894.300  0.500  3.437446  112.270140  65.565750  2.107722
  5904.292  5904.300  0.500  3.421319  111.816299  65.712840  2.146793
  5914.290  5914.300  0.500  3.405648  109.473624  64.716906  2.147650
  5924.293  5924.300  0.500  3.390597  111.909060  66.551206  2.242014
  5934.293  5934.300  0.500  3.379181  105.441186  63.101429  2.150204
  5936.294  5936.300  0.500  3.376793  111.599373  66.865697  2.283919
  5938.292  5938.300  0.500  3.375084  111.245883  66.731739  2.283244
  5940.294  5940.300  0.500  3.374088  110.750659  66.460863  2.276241
  5942.298  5942.300  0.500  3.372836  109.486912  65.813311  2.256886
  5944.291  5944.300  0.500  3.373337  106.223677  63.942271  2.191627
  5946.295  5946.300  0.500  3.372709  92.468898  55.724357  1.911156
  5948.296  5948.300  0.500  3.376364  112.073153  67.597562  2.309908
  5950.295  5950.300  0.500  3.379768  111.932001  67.620286  2.302833
  5952.293  5952.300  0.500  3.386700  111.653546  67.556141  2.284755
  5954.295  5954.300  0.500  3.398047  111.540142  67.580462  2.259790
  5954.589  5954.600  0.500  3.400210  111.504329  67.564274  2.254368
  5954.888  5954.900  0.500  3.402655  111.481413  67.537193  2.247961
  5955.188  5955.200  0.500  3.405471  111.390093  67.502245  2.240479
  5955.485  5955.500  0.500  3.408348  111.415092  67.490297  2.233647
  5955.786  5955.800  0.500  3.411626  111.415256  67.533819  2.227773
  5956.089  5956.100  0.500  3.414972  111.313469  67.458883  2.217868
  5956.390  5956.400  0.500  3.419237  111.324535  67.474663  2.208944
  5956.688  5956.700  0.500  3.423648  111.330405  67.485905  2.199590
  5956.991  5957.000  0.500  3.428376  111.256898  67.450397  2.188062
  5957.290  5957.300  0.500  3.433803  111.257155  67.460287  2.176538
  5957.590  5957.600  0.500  3.439931  111.179399  67.423956  2.162078
  5957.890  5957.900  0.500  3.446477  111.193201  67.453548  2.148914
  5958.190  5958.200  0.500  3.454447  111.167718  67.444357  2.131564
  5958.491  5958.500  0.500  3.463096  111.141277  67.449112  2.113355
  5958.794  5958.800  0.500  3.472659  111.111845  67.466790  2.093791
  5959.093  5959.100  0.500  3.483414  111.093506  67.470739  2.071515
  5959.397  5959.400  0.500  3.495036  111.114359  67.458741  2.047215
  5959.695  5959.700  0.500  3.507613  111.068685  67.459703  2.021656
  5959.993  5960.000  0.500  3.521475  111.020717  67.429064  1.992920
  5960.291  5960.300  0.500  3.535842  110.982351  67.421023  1.964258
  5960.591  5960.600  0.500  3.551210  110.977719  67.440909  1.934874
  5960.891  5960.900  0.500  3.566977  110.985604  67.505464  1.906428
  5961.196  5961.200  0.500  3.584251  110.950041  67.441922  1.872015
  5961.495  5961.500  0.500  3.601497  110.865313  67.381051  1.838347
  5961.797  5961.800  0.500  3.619464  110.868768  67.400526  1.806134
  5962.094  5962.100  0.500  3.639695  110.865070  67.423300  1.770559
  5962.396  5962.400  0.500  3.662739  110.844727  67.427483  1.730333
  5962.698  5962.700  0.500  3.689475  110.849547  67.437289  1.684928
  5962.991  5963.000  0.500  3.719292  110.766413  67.393826  1.634377
  5963.293  5963.300  0.500  3.754190  110.830500  67.441362  1.579436
  5963.597  5963.600  0.500  3.795666  110.827202  67.465331  1.515806
  5963.895  5963.900  0.500  3.845105  110.763995  67.459995  1.442575
  5964.198  5964.200  0.500  3.905682  110.746708  67.464122  1.357866
  5964.496  5964.500  0.500  3.974553  110.719217  67.455191  1.267327
  5964.800  5964.800  0.500  4.052705  110.732656  67.490614  1.172670
  5965.099  5965.100  0.500  4.140753  110.705130  67.478485  1.073641
  5965.394  5965.400  0.500  4.238216  110.702607  67.459212  0.973660
  5965.696  5965.700  0.500  4.346621  110.659845  67.438242  0.873359
  5965.992  5966.000  0.500  4.461525  110.644210  67.450228  0.778696
  5966.299  5966.300  0.500  4.583121  110.602875  67.451644  0.689555
  5966.599  5966.600  0.500  4.709793  110.603072  67.472955  0.607704
  5966.903  5966.900  0.500  4.843514  110.573561  67.450839  0.531467
  5967.198  5967.200  0.500  4.972993  110.532455  67.444296  0.466876
  5967.497  5967.500  0.500  5.096778  110.565966  67.481322  0.412744
  5967.795  5967.800  0.500  5.203129  110.514265  67.452978  0.370946
  5968.099  5968.100  0.500  5.295679  110.524053  67.487461  0.338329
  5968.400  5968.400  0.500  5.368638  110.486587  67.474386  0.314463
  5968.697  5968.700  0.500  5.418909  110.427895  67.454889  0.298959
  5969.003  5969.000  0.500  5.449814  110.423508  67.481119  0.289973
  5969.299  5969.300  0.500  5.462824  110.443130  67.490075  0.286263
  5969.601  5969.600  0.500  5.462341  110.392823  67.493302  0.286415
  5969.896  5969.900  0.500  5.450513  110.388108  67.505611  0.289876
  5970.194  5970.200  0.500  5.433426  110.396032  67.498657  0.294841
  5970.500  5970.500  0.500  5.410356  110.352199  67.433185  0.301429
  5970.797  5970.800  0.500  5.387073  110.353663  67.473911  0.308716
  5971.101  5971.100  0.500  5.361680  110.298271  67.462889  0.316604
  5971.398  5971.400  0.500  5.336092  110.244280  67.458846  0.324791
  5971.697  5971.700  0.500  5.308028  110.289724  67.491882  0.334198
  5972.001  5972.000  0.500  5.276887  110.268325  67.479143  0.344704
  5972.297  5972.300  0.500  5.244334  110.242267  67.451476  0.355964
  5972.604  5972.600  0.500  5.206571  110.207281  67.479299  0.369816
  5972.901  5972.900  0.500  5.164055  110.181950  67.463371  0.385787
  5973.202  5973.200  0.500  5.119172  110.186041  67.493530  0.403677
  5973.503  5973.500  0.500  5.072570  110.149219  67.502123  0.422988
  5973.797  5973.800  0.500  5.025668  110.085122  67.472431  0.443105
  5974.099  5974.100  0.500  4.979687  110.117845  67.478127  0.463994
  5974.399  5974.400  0.500  4.934001  110.076220  67.447807  0.485465
  5974.698  5974.700  0.500  4.892469  110.106824  67.490495  0.506373
  5975.005  5975.000  0.500  4.855074  110.059018  67.474646  0.525544
  5975.300  5975.300  0.500  4.823840  109.962742  67.419324  0.541773
  5975.602  5975.600  0.500  4.795409  110.032814  67.468851  0.557807
  5975.895  5975.900  0.500  4.771890  109.940291  67.412812  0.570607
  5976.199  5976.200  0.500  4.752957  109.899498  67.408659  0.581477
  5976.498  5976.500  0.500  4.739410  109.907340  67.422916  0.589533
  5976.801  5976.800  0.500  4.730459  109.913952  67.444576  0.595024
  5977.100  5977.100  0.500  4.726741  109.899653  67.434541  0.597152
  5977.401  5977.400  0.500  4.727091  109.857580  67.446438  0.597048
  5977.701  5977.700  0.500  4.732331  109.816764  67.435624  0.593833
  5977.996  5978.000  0.500  4.741109  109.781536  67.444328  0.588719
  5978.298  5978.300  0.500  4.752212  109.791632  67.475112  0.582484
  5978.598  5978.600  0.500  4.765331  109.742139  67.391861  0.574183
  5978.898  5978.900  0.500  4.779135  109.680507  67.369934  0.566127
  5979.201  5979.200  0.500  4.790384  109.650495  67.381695  0.559893
  5979.503  5979.500  0.500  4.798323  109.598203  67.342776  0.555144
  5979.805  5979.800  0.500  4.801954  109.579097  67.347961  0.553175
  5980.099  5980.100  0.500  4.800781  109.534373  67.333149  0.553702
  5980.401  5980.400  0.500  4.796543  109.504906  67.294623  0.555736
  5980.699  5980.700  0.500  4.788495  109.422308  67.295802  0.560236
  5981.004  5981.000  0.500  4.778001  109.424988  67.349308  0.566596
  5981.305  5981.300  0.500  4.766101  109.396492  67.320482  0.573134
  5981.602  5981.600  0.500  4.752835  109.340174  67.280133  0.580439
  5981.906  5981.900  0.500  4.737287  109.289786  67.258670  0.589347
  5982.203  5982.200  0.500  4.718682  109.244315  67.219525  0.600064
  5982.501  5982.500  0.500  4.698604  109.141611  67.189214  0.611958
  5982.800  5982.800  0.500  4.675416  109.122962  67.200938  0.626424
  5983.102  5983.100  0.500  4.649005  109.049049  67.176704  0.642956
  5983.403  5983.400  0.500  4.620182  109.009747  67.188456  0.661874
  5983.703  5983.700  0.500  4.590922  108.986919  67.130808  0.680941
  5983.999  5984.000  0.500  4.562057  108.952583  67.117085  0.700740
  5984.302  5984.300  0.500  4.534231  108.807324  67.049665  0.719789
  5984.604  5984.600  0.500  4.507550  108.732908  67.033680  0.739076
  5984.903  5984.900  0.500  4.482034  108.632205  66.977849  0.757545
  5985.202  5985.200  0.500  4.459623  108.526783  66.922722  0.774076
  5985.503  5985.500  0.500  4.438821  108.447624  66.882634  0.789874
  5985.800  5985.800  0.500  4.421152  108.605714  67.012704  0.805518
  5986.100  5986.100  0.500  4.404009  108.405649  66.887672  0.817917
  5986.399  5986.400  0.500  4.388612  108.332136  66.838274  0.829995
  5986.706  5986.700  0.500  4.374966  108.060148  66.679944  0.839405
  5987.002  5987.000  0.500  4.363072  107.873733  66.589662  0.848299
  5987.304  5987.300  0.500  4.352223  107.586764  66.397724  0.855080
  5987.604  5987.600  0.500  4.341765  107.239789  66.197720  0.861467
  5987.903  5987.900  0.500  4.332433  106.873085  65.993640  0.866863
  5988.206  5988.200  0.500  4.323613  106.287462  65.666276  0.870204
  5988.502  5988.500  0.500  4.316400  105.523107  65.223870  0.870599
  5988.802  5988.800  0.500  4.308964  104.609756  64.651202  0.869395
  5989.102  5989.100  0.500  4.302622  103.122493  63.773027  0.863042
  5989.301  5989.300  0.500  4.299186  101.676552  62.871374  0.853769
  5990.301  5990.290  0.500  4.283738  84.893602  52.511917  0.724192
  5991.300  5991.290  0.500  4.269737  93.199370  57.695198  0.806894
  5992.329  5992.310  0.500  4.268821  110.776424  68.598892  0.960267
  5993.354  5993.360  0.500  4.273209  111.337263  68.954096  0.961013
  5994.409  5994.420  0.500  4.283772  111.058003  68.841175  0.949358
  5995.493  5995.500  0.500  4.299852  110.787195  68.722998  0.932610
  5996.594  5996.600  0.500  4.318788  110.590873  68.670696  0.914420
  5997.718  5997.720  0.500  4.339178  110.466072  68.658293  0.895802
  5998.862  5998.860  0.500  4.361704  110.233840  68.539827  0.874337
  6000.012  6000.010  0.500  4.382577  110.106919  68.498602  0.855762
  6001.192  6001.190  0.500  4.402751  109.979287  68.468187  0.838298
  6002.385  6002.380  0.500  4.416573  109.898972  68.449914  0.826570
  6003.601  6003.600  0.500  4.424684  109.757136  68.414198  0.819465
  6004.832  6004.830  0.500  4.426517  109.672975  68.403906  0.817841
  6006.084  6006.080  0.500  4.426455  109.560950  68.380705  0.817614
  6007.348  6007.350  0.500  4.423454  109.464836  68.375971  0.820015
  6008.642  6008.640  0.500  4.417698  109.365311  68.373140  0.824714
  6009.953  6009.950  0.500  4.408855  109.253622  68.361948  0.831904
  6011.284  6011.280  0.500  4.397369  109.177309  68.345504  0.841312
  6012.635  6012.630  0.500  4.385509  109.091494  68.349785  0.851402
  6014.007  6014.000  0.500  4.375893  108.965444  68.339898  0.859504
  6015.386  6015.380  0.500  4.368350  108.911135  68.334106  0.865939
  6016.797  6016.790  0.500  4.361661  108.765882  68.305654  0.871388
  6018.216  6018.210  0.500  4.354738  108.684298  68.290534  0.877247
  6019.658  6019.650  0.500  4.346313  108.565311  68.257543  0.884242
  6021.114  6021.110  0.500  4.337728  108.428062  68.260856  0.891908
  6022.594  6022.590  0.500  4.328699  108.364456  68.306038  0.900594
  6024.095  6024.090  0.500  4.319664  108.170587  68.222515  0.907656
  6025.614  6025.610  0.500  4.311151  108.054890  68.169665  0.914707
  6027.154  6027.150  0.500  4.303811  108.022767  68.218209  0.922102
  6028.717  6028.710  0.500  4.298133  107.909370  68.210174  0.927243
  6030.283  6030.280  0.500  4.293955  107.824860  68.236934  0.931491
  6031.885  6031.880  0.500  4.290697  107.680074  68.211150  0.934177
  6033.493  6033.490  0.500  4.287874  107.569471  68.167281  0.936216
  6035.139  6035.130  0.500  4.284890  107.451509  68.149862  0.938773
  6036.789  6036.780  0.500  4.281664  107.281980  68.127664  0.941500
  6038.455  6038.450  0.500  4.277642  107.195242  68.153043  0.945647
  6040.149  6040.140  0.500  4.274496  107.071240  68.124328  0.948227
  6041.861  6041.850  0.500  4.272096  106.946418  68.129656  0.950579
  6043.585  6043.580  0.500  4.270949  106.755190  68.067529  0.950803
  6045.342  6045.330  0.500  4.270322  106.634083  68.034846  0.950942
  6047.095  6047.090  0.500  4.270562  106.498017  68.001857  0.950253
  6048.890  6048.880  0.500  4.270919  106.370270  67.986915  0.949705
  6050.695  6050.680  0.500  4.271850  106.259467  67.978878  0.948709
  6052.518  6052.510  0.500  4.272171  106.099414  67.978640  0.948401
  6054.354  6054.350  0.500  4.272147  105.893016  67.907812  0.947436
  6056.223  6056.210  0.500  4.271931  105.599210  67.790504  0.946004
  6058.101  6058.090  0.500  4.271680  105.409585  67.743899  0.945591
  6060.003  6059.990  0.500  4.271626  105.208662  67.678585  0.944730
  6061.919  6061.910  0.500  4.272030  104.918435  67.553309  0.942600
  6063.863  6063.850  0.500  4.272903  104.735193  67.508004  0.941146
  6065.821  6065.810  0.500  4.273922  104.567632  67.473758  0.939710
  6067.787  6067.780  0.500  4.273975  104.340942  67.416411  0.938862
  6069.786  6069.780  0.500  4.272576  104.185988  67.382787  0.939707
  6071.803  6071.790  0.500  4.268388  103.984456  67.336472  0.943003
  6073.839  6073.820  0.500  4.262302  103.791219  67.291547  0.948127
  6075.887  6075.880  0.500  4.256238  103.642156  67.273053  0.953631
  6077.960  6077.950  0.500  4.248632  103.386292  67.183030  0.959626
  6080.053  6080.040  0.500  4.241830  103.232875  67.154902  0.965771
  6082.158  6082.150  0.500  4.235084  102.994024  67.081200  0.971242
  6084.292  6084.280  0.500  4.227535  102.774304  67.042559  0.978037
  6086.431  6086.420  0.500  4.220937  102.560652  66.990005  0.983740
  6088.600  6088.590  0.500  4.215790  102.389198  66.919004  0.987768
  6090.789  6090.780  0.500  4.211785  102.128106  66.852655  0.990749
  6092.987  6092.980  0.500  4.209430  101.922512  66.812707  0.992492
  6095.209  6095.200  0.500  4.207419  101.659550  66.704940  0.992886
  6097.459  6097.450  0.500  4.206935  101.427521  66.608880  0.991936
  6099.720  6099.710  0.500  4.207275  101.141382  66.512368  0.990161
  6102.004  6101.990  0.500  4.207979  100.862302  66.419142  0.988078
  6104.303  6104.290  0.500  4.207188  100.576608  66.315535  0.987317
  6106.620  6106.610  0.500  4.204284  100.312460  66.200659  0.988473
  6108.960  6108.950  0.500  4.198659  99.986478  66.059364  0.991927
  6111.311  6111.300  0.500  4.191729  99.681801  65.919472  0.996710
  6113.688  6113.680  0.500  4.184875  99.398631  65.793632  1.001650
  6116.080  6116.070  0.500  4.178737  99.132714  65.719206  1.006676
  6118.501  6118.490  0.500  4.172839  98.810941  65.610058  1.010949
  6120.932  6120.920  0.500  4.166768  98.460224  65.480432  1.015096
  6123.380  6123.370  0.500  4.160482  98.162069  65.379842  1.019928
  6125.864  6125.850  0.500  4.154939  97.804578  65.227957  1.023215
  6128.354  6128.340  0.500  4.149902  97.457134  65.072200  1.025925
  6130.873  6130.850  0.500  4.144910  97.085198  64.926874  1.028757
  6133.380  6133.370  0.500  4.140788  96.722477  64.750747  1.030204
  6135.934  6135.920  0.500  4.137611  96.333405  64.569101  1.030584
  6138.502  6138.490  0.500  4.135915  95.879769  64.355412  1.028916
  6141.082  6141.070  0.500  4.134312  95.421705  64.140425  1.027124
  6143.704  6143.680  0.500  4.132298  95.025195  63.966647  1.026406
  6146.326  6146.300  0.500  4.130669  94.612553  63.791748  1.025269
  6148.964  6148.950  0.500  4.127937  94.140051  63.533673  1.023914
  6151.626  6151.610  0.500  4.125131  93.537618  63.194919  1.021317
  6154.303  6154.290  0.500  4.120481  92.975587  62.903101  1.021339
  6157.016  6156.990  0.500  4.115000  92.060569  62.374551  1.018323
  6159.738  6159.710  0.500  4.108791  90.132707  61.159620  1.004707
  6162.465  6162.450  0.500  4.101814  91.716290  62.342091  1.031303
  6165.224  6165.200  0.500  4.094963  90.735260  61.750108  1.028532
  6167.998  6167.980  0.500  4.088671  89.953440  61.300951  1.027495
  6170.781  6170.770  0.500  4.082321  92.055949  62.826177  1.059769
  6173.605  6173.590  0.500  4.075989  90.971203  62.158729  1.055170
  6176.433  6176.420  0.500  4.070382  90.278153  61.779283  1.054626
  6179.280  6179.270  0.500  4.065762  89.624107  61.439946  1.053690
  6182.161  6182.150  0.500  4.060988  89.029271  61.110498  1.053055
  6185.062  6185.040  0.500  4.057160  88.400700  60.782284  1.051417
  6187.968  6187.950  0.500  4.053800  87.850342  60.503614  1.050118
  6190.892  6190.870  0.500  4.051467  87.293418  60.219361  1.047627
  6193.846  6193.820  0.500  4.049183  86.674853  59.846288  1.043516
  6196.804  6196.790  0.500  4.045976  86.075840  59.511045  1.041005
  6199.796  6199.770  0.500  4.042251  85.442774  59.180843  1.039092
  6202.812  6202.780  0.500  4.037177  84.820235  58.842146  1.038400
  6205.812  6205.800  0.500  4.031560  84.213837  58.506662  1.038296
  6208.876  6208.850  0.500  4.025152  83.529097  58.129172  1.038229
  6211.937  6211.910  0.500  4.019336  82.940850  57.804314  1.038448
  6215.018  6214.990  0.500  4.014307  82.311783  57.455093  1.037378
  6218.121  6218.090  0.500  4.006214  81.661352  57.066730  1.038739
  6221.219  6221.210  0.500  3.998640  81.023330  56.725571  1.040379
  6224.351  6224.350  0.500  3.992380  80.329810  56.329359  1.039600
  6227.492  6227.500  0.500  3.987202  79.655679  55.939975  1.037773
  6230.712  6230.680  0.500  3.982861  79.008319  55.575201  1.035491
  6233.859  6233.870  0.500  3.979079  78.294826  55.173652  1.031904
  6237.073  6237.090  0.500  3.975530  77.650398  54.809142  1.028732
  6240.299  6240.320  0.500  3.972296  76.957465  54.408393  1.024518
  6243.553  6243.570  0.500  3.968798  76.326337  54.065829  1.021635
  6246.828  6246.850  0.500  3.965463  75.621533  53.639628  1.016968
  6250.121  6250.140  0.500  3.961000  74.958014  53.239558  1.013897
  6253.436  6253.450  0.500  3.955576  74.205866  52.805919  1.011108
  6256.758  6256.770  0.500  3.949489  73.553550  52.427653  1.009995
  6260.109  6260.120  0.500  3.942620  72.859791  52.004325  1.008745
  6263.477  6263.490  0.500  3.935102  72.189727  51.590447  1.008268
  6266.856  6266.870  0.500  3.927206  71.497327  51.188328  1.008340
  6270.261  6270.280  0.500  3.919738  70.825109  50.807313  1.008337
  6273.721  6273.700  0.500  3.912209  70.126845  50.400327  1.007819
  6277.132  6277.150  0.500  3.904826  69.450801  50.002692  1.007277
  6280.625  6280.610  0.500  3.898101  68.787588  49.563227  1.005162
  6284.077  6284.090  0.500  3.891771  68.112827  49.180259  1.003728
  6287.575  6287.590  0.500  3.887085  67.455952  48.790129  1.000443
  6291.098  6291.110  0.500  3.882659  66.752084  48.368751  0.996202
  6294.662  6294.650  0.500  3.878725  66.301474  48.123483  0.995058
  6298.181  6298.200  0.500  3.875231  65.636111  47.713089  0.990025
  6301.830  6301.780  0.500  3.870944  64.990311  47.303964  0.985752
  6305.368  6305.380  0.500  3.866401  64.319831  46.927676  0.982364
  6308.976  6308.990  0.500  3.861289  63.668831  46.532049  0.979074
  6312.616  6312.620  0.500  3.854712  63.076996  46.175755  0.977989
  6316.265  6316.280  0.500  3.847627  62.437653  45.768256  0.976251
  6319.961  6319.950  0.500  3.840042  61.779706  45.367101  0.975062
  6323.627  6323.640  0.500  3.832797  61.134573  44.965345  0.973454
  6327.334  6327.350  0.500  3.824910  60.499939  44.566760  0.972464
  6331.072  6331.080  0.500  3.817657  59.834674  44.169957  0.970822
  6334.805  6334.820  0.500  3.810191  59.261406  43.826208  0.970485
  6338.566  6338.590  0.500  3.802494  58.642841  43.450617  0.969603
  6342.358  6342.380  0.500  3.795729  58.021518  43.058608  0.967378
  6346.164  6346.180  0.500  3.788819  57.432274  42.686761  0.965673
  6349.994  6350.010  0.500  3.782842  56.830228  42.309233  0.962871
  6353.833  6353.850  0.500  3.777680  56.244128  41.950127  0.959638
  6357.691  6357.710  0.500  3.772673  55.655501  41.600329  0.956414
  6361.575  6361.590  0.500  3.768083  55.073641  41.243674  0.952576
  6365.471  6365.490  0.500  3.762846  54.479155  40.867363  0.948841
  6369.397  6369.410  0.500  3.757389  53.927357  40.520740  0.945941
  6373.337  6373.350  0.500  3.751522  53.358586  40.166108  0.943180
  6377.293  6377.310  0.500  3.744660  52.766870  39.788628  0.940750
  6381.263  6381.280  0.500  3.737261  52.247375  39.475105  0.940268
  6385.264  6385.280  0.500  3.729670  51.673177  39.115907  0.938812
  6389.276  6389.290  0.500  3.721912  51.106011  38.740497  0.937042
  6393.316  6393.330  0.500  3.713944  50.540188  38.382698  0.935815
  6397.359  6397.380  0.500  3.705866  50.002958  38.046589  0.935144
  6401.438  6401.450  0.500  3.698517  49.474682  37.714856  0.933828
  6405.523  6405.540  0.500  3.690917  48.926560  37.359739  0.932093
  6409.635  6409.650  0.500  3.684238  48.361879  37.006778  0.929474
  6413.760  6413.780  0.500  3.677286  47.856387  36.690243  0.927952
  6417.910  6417.930  0.500  3.671092  47.355273  36.362316  0.925372
