# XDI/1.0 BlueSky/1.10.0 BMM/2023-1.0-py310-tiled
# Beamline.name: BMM (06BM) -- Beamline for Materials Measurement (NIST)
# Beamline.xray_source: NSLS-II three-pole wiggler
# Beamline.collimation: paraboloid mirror, 5 nm Rh on 30 nm Pt
# Beamline.focusing: not in use
# Beamline.harmonic_rejection: flat mirror, Pt stripe, pitch = 7.0 mrad relative to beam
# Beamline.software: Bluesky 1.10.0, Ophyd 1.7.0, DataBroker 2.0.0b13, Python 3.10.8, 2023-1.0-py310-tiled
# Detector.I0: 10 cm N2
# Detector.I1: 25 cm N2
# Detector.I2: 25 cm N2
# Element.symbol: Gd
# Element.edge: L1
# Element.reference: Gd
# Element.reference_material: Gd2O3
# Facility.name: NSLS-II
# Facility.energy: 3.0
# Facility.current: 400.7
# Facility.mode: top-off
# Facility.GUP: 123456
# Facility.SAF: 301027
# Facility.cycle: 2023-2
# Mono.name: Si(111)
# Mono.d_spacing: 3.1351860
# Mono.encoder_resolution: 0.0000050 deg/ct
# Mono.angle_offset: 16.0754326 deg
# Mono.scan_mode: pseudo channel cut
# Mono.scan_type: step
# Mono.direction: forward in energy
# Sample.name: Gd2TiO5
# Sample.prep: Powder in PEG pellet
# Sample.x: 149.848 mm
# Sample.y: 114.690 mm
# Sample.SDD_position: 205.000 mm
# Scan.experimenters: Bruce Ravel
# Scan.edge_energy: 8375.6
# Scan.start_time: 2023-05-08T21:44:31
# Scan.end_time: 2023-05-08T21:50:19
# Scan.transient_id: 75642
# Scan.uid: db14f2a7-34ec-48bb-8d73-ce3c7c4dc71f
# Scan.plot_hint: ln(I0/It)  --  ln($5/$6)
# Column.1: energy eV
# Column.2: requested_energy eV
# Column.3: measurement_time seconds
# Column.4: xmu 
# Column.5: I0 nA
# Column.6: It nA
# Column.7: Ir nA
# ///////////
# sample courtesy Martin Stennett, University of Sheffield
# -----------
# energy  requested_energy  measurement_time  xmu  I0  It  Ir
  8175.604  8175.600  0.500  1.114759  135.876842  44.566825  11.437432
  8185.655  8185.600  0.500  1.108005  135.708017  44.813084  11.546818
  8195.631  8195.600  0.500  1.102119  135.543372  45.022950  11.653283
  8205.649  8205.600  0.500  1.097392  135.369595  45.178275  11.750453
  8215.655  8215.600  0.500  1.092563  135.179533  45.333237  11.850328
  8225.655  8225.600  0.500  1.087403  135.003680  45.508496  11.943790
  8235.621  8235.600  0.500  1.081092  134.787867  45.723382  12.043778
  8245.618  8245.600  0.500  1.075241  134.617716  45.933666  12.151619
  8255.625  8255.600  0.500  1.070040  134.428179  46.108175  12.254204
  8265.623  8265.600  0.500  1.065577  134.258293  46.255896  12.344701
  8275.616  8275.600  0.500  1.061454  134.071187  46.382238  12.428010
  8285.619  8285.600  0.500  1.056712  133.846454  46.524593  12.519029
  8295.618  8295.600  0.500  1.051262  133.666608  46.715998  12.618040
  8305.624  8305.600  0.500  1.045858  133.479777  46.903477  12.717990
  8315.616  8315.600  0.500  1.040226  133.287714  47.100539  12.822730
  8325.621  8325.600  0.500  1.035170  133.088171  47.268408  12.923157
  8335.570  8335.600  0.500  1.030899  132.692842  47.329712  12.994946
  8345.580  8345.600  0.500  1.026953  132.335034  47.388692  13.060236
  8347.582  8347.600  0.500  1.026119  132.287044  47.411036  13.077562
  8349.584  8349.600  0.500  1.025460  132.143101  47.390649  13.081918
  8351.575  8351.600  0.500  1.024552  131.970532  47.371758  13.086799
  8353.580  8353.600  0.500  1.023850  131.833158  47.355714  13.092037
  8355.579  8355.600  0.500  1.022738  131.825613  47.405656  13.114006
  8357.579  8357.600  0.500  1.021794  131.792937  47.438683  13.131573
  8359.578  8359.600  0.500  1.021016  131.761299  47.464228  13.141558
  8361.583  8361.600  0.500  1.020234  131.736174  47.492264  13.155845
  8363.580  8363.600  0.500  1.019534  131.712225  47.516904  13.169666
  8365.584  8365.600  0.500  1.018968  131.680156  47.532212  13.181230
  8366.077  8366.100  0.500  1.018661  131.673183  47.544315  13.186791
  8366.575  8366.600  0.500  1.018589  131.657710  47.542150  13.189502
  8367.076  8367.100  0.500  1.018378  131.646093  47.547959  13.191287
  8367.569  8367.600  0.500  1.018381  131.634898  47.543803  13.192558
  8368.076  8368.100  0.500  1.018127  131.624531  47.552127  13.196165
  8368.575  8368.600  0.500  1.018134  131.611919  47.547252  13.194831
  8369.076  8369.100  0.500  1.017979  131.592649  47.547661  13.196398
  8369.572  8369.600  0.500  1.017922  131.591984  47.550106  13.199195
  8370.074  8370.100  0.500  1.018014  131.576777  47.540222  13.194580
  8370.578  8370.600  0.500  1.018040  131.567534  47.535651  13.193900
  8371.086  8371.100  0.500  1.018178  131.563015  47.527492  13.191019
  8371.582  8371.600  0.500  1.018255  131.544559  47.517168  13.187586
  8372.090  8372.100  0.500  1.018140  131.532972  47.518416  13.186873
  8372.592  8372.600  0.500  1.018297  131.515100  47.504523  13.183284
  8373.091  8373.100  0.500  1.018496  131.498969  47.489249  13.175179
  8373.590  8373.600  0.500  1.018410  131.486816  47.488945  13.172192
  8374.092  8374.100  0.500  1.018672  131.480769  47.474318  13.166981
  8374.586  8374.600  0.500  1.019198  131.473315  47.446660  13.154710
  8375.088  8375.100  0.500  1.019735  131.461572  47.416950  13.143152
  8375.581  8375.600  0.500  1.020075  131.447357  47.395719  13.130022
  8376.090  8376.100  0.500  1.020894  131.437565  47.353355  13.109873
  8376.592  8376.600  0.500  1.021859  131.424155  47.302871  13.085243
  8377.095  8377.100  0.500  1.023126  131.418370  47.240878  13.054004
  8377.592  8377.600  0.500  1.024705  131.410056  47.163365  13.016276
  8378.097  8378.100  0.500  1.026875  131.402291  47.058381  12.971821
  8378.594  8378.600  0.500  1.028761  131.396763  46.967736  12.927590
  8379.091  8379.100  0.500  1.030521  131.386979  46.881631  12.892583
  8379.594  8379.600  0.500  1.032198  131.382313  46.801437  12.856735
  8380.088  8380.100  0.500  1.033723  131.354735  46.720312  12.821662
  8380.591  8380.600  0.500  1.035273  131.342599  46.643620  12.786157
  8381.088  8381.100  0.500  1.036760  131.331409  46.570332  12.753323
  8381.594  8381.600  0.500  1.038171  131.315323  46.498962  12.719895
  8382.094  8382.100  0.500  1.039503  131.305470  46.433604  12.686338
  8382.600  8382.600  0.500  1.040878  131.298955  46.367502  12.656044
  8383.098  8383.100  0.500  1.042630  131.266186  46.274800  12.617080
  8383.604  8383.600  0.500  1.044283  131.249495  46.192469  12.578444
  8384.098  8384.100  0.500  1.046115  131.242308  46.105427  12.540816
  8384.599  8384.600  0.500  1.048191  131.226091  46.004128  12.499879
  8385.099  8385.100  0.500  1.050231  131.209618  45.904581  12.456805
  8385.591  8385.600  0.500  1.052681  131.197032  45.787881  12.407390
  8386.092  8386.100  0.500  1.055215  131.173729  45.663864  12.354191
  8386.589  8386.600  0.500  1.058215  131.153129  45.519952  12.292900
  8387.093  8387.100  0.500  1.061579  131.134969  45.360809  12.225611
  8387.591  8387.600  0.500  1.064960  131.113988  45.200473  12.156133
  8388.098  8388.100  0.500  1.068547  131.095888  45.032372  12.086133
  8388.596  8388.600  0.500  1.072218  131.076109  44.860590  12.013243
  8389.100  8389.100  0.500  1.075725  131.058153  44.697432  11.940280
  8389.598  8389.600  0.500  1.078941  131.048826  44.550751  11.874627
  8390.105  8390.100  0.500  1.081962  131.025870  44.408563  11.814475
  8390.600  8390.600  0.500  1.084548  131.010535  44.288723  11.765108
  8391.105  8391.100  0.500  1.086420  130.996109  44.201016  11.728714
  8391.600  8391.600  0.500  1.088020  130.989649  44.128188  11.702582
  8392.102  8392.100  0.500  1.088837  130.975824  44.087478  11.687713
  8392.600  8392.600  0.500  1.089232  130.960332  44.064856  11.680418
  8393.098  8393.100  0.500  1.089279  130.953214  44.060376  11.681762
  8393.603  8393.600  0.500  1.089079  130.929815  44.061336  11.685433
  8394.099  8394.100  0.500  1.088541  130.921977  44.082402  11.693800
  8394.600  8394.600  0.500  1.088121  130.905656  44.095426  11.702420
  8395.102  8395.100  0.500  1.087825  130.908866  44.109566  11.709890
  8395.601  8395.600  0.500  1.087522  130.892337  44.117364  11.714988
  8396.100  8396.100  0.500  1.087020  130.872524  44.132833  11.722664
  8396.599  8396.600  0.500  1.086649  130.858699  44.144535  11.724712
  8397.098  8397.100  0.500  1.086483  130.838697  44.145112  11.724883
  8397.597  8397.600  0.500  1.086476  130.813599  44.136959  11.724030
  8398.093  8398.100  0.500  1.086298  130.809160  44.143302  11.726935
  8398.586  8398.600  0.500  1.085778  130.796650  44.162051  11.731632
  8399.094  8399.100  0.500  1.085421  130.780564  44.172392  11.733561
  8399.597  8399.600  0.500  1.085098  130.767685  44.182301  11.736847
  8400.102  8400.100  0.500  1.084783  130.756177  44.192343  11.740778
  8400.599  8400.600  0.500  1.084409  130.746936  44.205735  11.745775
  8401.592  8401.590  0.500  1.082755  130.717351  44.268905  11.767353
  8402.591  8402.590  0.500  1.081064  130.701177  44.338334  11.794553
  8403.624  8403.610  0.500  1.079080  130.679188  44.418910  11.829619
  8404.672  8404.660  0.500  1.076416  130.654581  44.529021  11.876673
  8405.733  8405.720  0.500  1.073109  130.639774  44.671436  11.937984
  8406.803  8406.800  0.500  1.069565  130.615260  44.821658  12.005278
  8407.906  8407.900  0.500  1.065962  130.586437  44.973509  12.072345
  8409.035  8409.020  0.500  1.062548  130.565701  45.120135  12.139386
  8410.175  8410.160  0.500  1.059491  130.534649  45.247518  12.200109
  8411.319  8411.310  0.500  1.056886  130.509413  45.356744  12.254369
  8412.491  8412.490  0.500  1.054995  130.489636  45.435732  12.296891
  8413.690  8413.680  0.500  1.053247  130.457372  45.503962  12.333768
  8414.914  8414.900  0.500  1.051790  130.426996  45.559713  12.364047
  8416.136  8416.130  0.500  1.050710  130.397165  45.598505  12.386397
  8417.382  8417.380  0.500  1.050069  130.359764  45.614656  12.401068
  8418.662  8418.650  0.500  1.049761  130.348252  45.624683  12.412714
  8419.954  8419.940  0.500  1.050037  130.323251  45.603320  12.413626
  8421.262  8421.250  0.500  1.050369  130.284260  45.574579  12.410715
  8422.586  8422.580  0.500  1.050737  130.260227  45.549393  12.408237
  8423.943  8423.930  0.500  1.051158  130.218696  45.515694  12.402957
  8425.316  8425.300  0.500  1.051448  130.191417  45.492979  12.400254
  8426.684  8426.680  0.500  1.051617  130.163231  45.475416  12.396673
  8428.095  8428.090  0.500  1.051552  130.130841  45.467053  12.395479
  8429.518  8429.510  0.500  1.051484  130.098573  45.458905  12.396448
  8430.957  8430.950  0.500  1.051494  130.055719  45.443459  12.390562
  8432.418  8432.410  0.500  1.051673  130.024554  45.424422  12.385239
  8433.895  8433.890  0.500  1.051952  129.988381  45.399144  12.376961
  8435.403  8435.390  0.500  1.052326  129.948105  45.368113  12.365285
  8436.924  8436.910  0.500  1.052742  129.915377  45.337798  12.356862
  8438.454  8438.450  0.500  1.053214  129.899241  45.310780  12.345308
  8440.028  8440.010  0.500  1.053622  129.867400  45.281192  12.331620
  8441.584  8441.580  0.500  1.053787  129.817202  45.256245  12.320193
  8443.195  8443.180  0.500  1.053563  129.775199  45.251730  12.319846
  8444.801  8444.790  0.500  1.052855  129.738443  45.270927  12.325937
  8446.436  8446.430  0.500  1.051821  129.687356  45.299949  12.338032
  8448.092  8448.080  0.500  1.050490  129.638599  45.343219  12.357603
  8449.762  8449.750  0.500  1.049030  129.611021  45.399813  12.383520
  8451.447  8451.440  0.500  1.047399  129.575037  45.461269  12.414808
  8453.160  8453.150  0.500  1.045533  129.530619  45.530563  12.448958
  8454.896  8454.880  0.500  1.043952  129.486395  45.587043  12.485092
  8456.633  8456.630  0.500  1.042327  129.434879  45.643023  12.517988
  8458.404  8458.390  0.500  1.040803  129.403994  45.701751  12.552231
  8460.188  8460.180  0.500  1.039251  129.350152  45.753680  12.583830
  8461.985  8461.980  0.500  1.037632  129.314352  45.815116  12.614218
  8463.826  8463.810  0.500  1.036049  129.263804  45.869789  12.640986
  8465.662  8465.650  0.500  1.034546  129.699119  46.093483  12.711878
  8467.529  8467.510  0.500  1.033364  129.660065  46.134073  12.732967
  8469.397  8469.390  0.500  1.032071  129.604646  46.174043  12.748348
  8471.303  8471.290  0.500  1.030984  129.564123  46.209794  12.765223
  8473.225  8473.210  0.500  1.030170  129.502547  46.225463  12.776840
  8475.161  8475.150  0.500  1.029475  129.455241  46.240692  12.791197
  8477.122  8477.110  0.500  1.028727  129.421577  46.263266  12.809811
  8479.102  8479.080  0.500  1.027919  129.371472  46.282711  12.828272
  8481.087  8481.080  0.500  1.026707  129.325527  46.322381  12.852108
  8483.100  8483.090  0.500  1.025624  129.284207  46.357791  12.877330
  8485.136  8485.120  0.500  1.024528  129.236186  46.391399  12.902392
  8487.191  8487.180  0.500  1.023243  129.182809  46.431834  12.926679
  8489.260  8489.250  0.500  1.022333  129.137453  46.457820  12.950311
  8491.354  8491.340  0.500  1.021292  129.087687  46.488256  12.973012
  8493.462  8493.450  0.500  1.020659  129.034281  46.498475  12.989334
  8495.590  8495.580  0.500  1.020105  128.980847  46.504940  13.002557
  8497.738  8497.720  0.500  1.019529  128.929462  46.513197  13.013470
  8499.895  8499.890  0.500  1.019101  128.875713  46.513710  13.024372
  8502.101  8502.080  0.500  1.018409  128.819296  46.525569  13.033775
  8504.289  8504.280  0.500  1.017746  128.759832  46.534931  13.041744
  8506.515  8506.500  0.500  1.017115  128.707674  46.545418  13.051366
  8508.762  8508.750  0.500  1.016369  128.647737  46.558456  13.057245
  8511.025  8511.010  0.500  1.015708  128.583946  46.566163  13.064259
  8513.299  8513.290  0.500  1.014798  128.525634  46.587390  13.080274
  8515.608  8515.590  0.500  1.013160  128.455828  46.638418  13.107035
  8517.927  8517.910  0.500  1.011820  128.380878  46.673716  13.128105
  8520.267  8520.250  0.500  1.010301  128.301071  46.715639  13.153029
  8522.618  8522.600  0.500  1.008718  128.195003  46.750949  13.173865
  8524.998  8524.980  0.500  1.007074  128.043733  46.772616  13.190438
  8527.382  8527.370  0.500  1.005786  127.626067  46.680149  13.177290
  8529.802  8529.790  0.500  1.004047  120.763948  44.247158  12.506936
  8532.230  8532.220  0.500  1.003078  123.713649  45.371837  12.836487
  8534.681  8534.670  0.500  1.001762  127.776637  46.923638  13.293900
  8537.152  8537.150  0.500  1.000708  127.916196  47.024430  13.339858
  8539.650  8539.640  0.500  0.999297  127.905744  47.087003  13.376398
  8542.162  8542.150  0.500  0.997783  127.845998  47.136302  13.407825
  8544.675  8544.670  0.500  0.996411  127.782469  47.177559  13.434262
  8547.228  8547.220  0.500  0.995187  127.720210  47.212345  13.455184
  8549.798  8549.790  0.500  0.993982  127.650664  47.243529  13.474132
  8552.378  8552.370  0.500  0.992699  127.589122  47.281372  13.495779
  8554.992  8554.980  0.500  0.991315  127.521532  47.321779  13.515034
  8557.611  8557.600  0.500  0.990135  127.438261  47.346673  13.534528
  8560.269  8560.250  0.500  0.988964  127.377967  47.379766  13.556089
  8562.913  8562.910  0.500  0.987900  127.308227  47.404204  13.575384
  8565.606  8565.590  0.500  0.986475  127.242151  47.447195  13.602247
  8568.291  8568.290  0.500  0.985298  127.159764  47.472272  13.625049
  8571.019  8571.010  0.500  0.984124  127.084895  47.500056  13.649855
  8573.761  8573.750  0.500  0.982985  127.003505  47.523755  13.671332
  8576.512  8576.500  0.500  0.981735  126.908020  47.547417  13.698362
  8579.296  8579.280  0.500  0.980405  126.822848  47.578737  13.722936
  8582.082  8582.070  0.500  0.979229  126.710070  47.592386  13.744747
  8584.904  8584.890  0.500  0.978231  126.610789  47.602546  13.766382
  8587.728  8587.720  0.500  0.977042  126.393678  47.577469  13.774903
  8590.599  8590.570  0.500  0.975785  125.532849  47.312896  13.713496
  8593.465  8593.450  0.500  0.974850  110.709162  41.764910  12.117129
  8596.362  8596.340  0.500  0.973393  125.678323  47.481166  13.786289
  8599.264  8599.250  0.500  0.972105  126.013691  47.669218  13.854844
  8602.194  8602.170  0.500  0.970512  125.935753  47.715655  13.880042
  8605.138  8605.120  0.500  0.969167  125.783212  47.722016  13.896701
  8608.109  8608.090  0.500  0.967730  125.519686  47.690541  13.899248
  8611.083  8611.070  0.500  0.966252  125.048220  47.581659  13.883797
  8614.098  8614.080  0.500  0.964463  123.768762  47.179154  13.780149
  8617.117  8617.100  0.500  0.962155  108.297796  41.377207  12.102328
  8620.164  8620.150  0.500  0.961047  126.353345  48.329174  14.148800
  8623.230  8623.210  0.500  0.959379  126.842990  48.597470  14.241893
  8626.301  8626.290  0.500  0.957788  126.516208  48.549436  14.244840
  8629.403  8629.390  0.500  0.956475  126.279930  48.522441  14.255777
  8632.526  8632.510  0.500  0.955228  126.085124  48.508048  14.267809
  8635.665  8635.650  0.500  0.953946  125.879215  48.490910  14.283783
  8638.809  8638.800  0.500  0.952441  125.548900  48.436510  14.282617
  8641.988  8641.980  0.500  0.951006  121.630735  46.992316  13.876142
  8645.201  8645.170  0.500  0.949691  123.040036  47.599328  14.071581
  8648.407  8648.390  0.500  0.948349  125.355900  48.560359  14.373107
  8651.634  8651.620  0.500  0.946879  125.384824  48.643032  14.420324
  8654.893  8654.870  0.500  0.945346  125.322178  48.693338  14.449606
  8658.168  8658.150  0.500  0.943798  125.217743  48.728107  14.478875
  8661.464  8661.440  0.500  0.942187  125.139355  48.776123  14.509118
  8664.767  8664.750  0.500  0.940649  125.045551  48.814570  14.539041
  8668.107  8668.070  0.500  0.939024  124.970353  48.864574  14.570943
  8671.430  8671.420  0.500  0.937275  124.874178  48.912416  14.601935
  8674.802  8674.790  0.500  0.935594  124.778598  48.957210  14.634527
  8678.199  8678.170  0.500  0.933985  124.674957  48.995328  14.664258
  8681.598  8681.580  0.500  0.932439  124.588989  49.037322  14.698805
  8685.026  8685.000  0.500  0.930916  124.496950  49.075760  14.729519
  8688.474  8688.450  0.500  0.929734  124.398588  49.094968  14.756979
  8691.930  8691.910  0.500  0.928253  124.267154  49.115814  14.781351
  8695.409  8695.390  0.500  0.926814  124.146808  49.138900  14.807129
  8698.914  8698.890  0.500  0.925355  123.992952  49.149663  14.827729
  8702.424  8702.410  0.500  0.923939  123.713616  49.108397  14.833936
  8705.974  8705.950  0.500  0.922148  121.738046  48.410852  14.640055
  8709.510  8709.500  0.500  0.920786  121.274078  48.292040  14.620609
  8713.094  8713.080  0.500  0.919120  123.754821  49.362083  14.965397
  8716.705  8716.680  0.500  0.917515  123.715987  49.425823  15.004013
  8720.305  8720.290  0.500  0.915986  123.601266  49.455588  15.032229
  8723.942  8723.920  0.500  0.914307  123.532179  49.510991  15.067995
  8727.608  8727.580  0.500  0.912211  123.428709  49.573334  15.103794
  8731.267  8731.250  0.500  0.910402  123.339268  49.627071  15.140694
  8734.958  8734.940  0.500  0.908532  123.244000  49.681556  15.176859
  8738.673  8738.650  0.500  0.906969  123.138649  49.716763  15.207268
  8742.394  8742.380  0.500  0.905337  123.050521  49.762321  15.242487
  8746.138  8746.120  0.500  0.903658  122.944110  49.802808  15.275831
  8749.915  8749.890  0.500  0.901833  122.849294  49.855318  15.312601
  8753.695  8753.680  0.500  0.900069  122.754310  49.904722  15.349395
  8757.499  8757.480  0.500  0.898364  122.634820  49.941259  15.382944
  8761.329  8761.310  0.500  0.896780  122.539406  49.981508  15.417515
  8765.166  8765.150  0.500  0.895113  122.428071  50.019374  15.451056
  8769.019  8769.010  0.500  0.893440  122.330613  50.063247  15.488157
  8772.916  8772.890  0.500  0.891925  122.228395  50.097250  15.519884
  8776.813  8776.790  0.500  0.890300  122.125510  50.136516  15.554637
  8780.723  8780.710  0.500  0.888554  122.020241  50.180835  15.590538
  8784.660  8784.650  0.500  0.886799  121.899775  50.219352  15.624299
  8788.631  8788.610  0.500  0.885097  121.793819  50.261171  15.659271
  8792.595  8792.580  0.500  0.883360  121.678758  50.300998  15.694903
  8796.593  8796.580  0.500  0.881498  121.564227  50.347305  15.732416
  8800.615  8800.590  0.500  0.879672  121.471487  50.400808  15.771637
  8804.654  8804.630  0.500  0.877845  121.370788  50.451118  15.805760
  8808.703  8808.680  0.500  0.875987  121.253141  50.495953  15.839724
  8812.760  8812.750  0.500  0.874358  121.150498  50.535478  15.874560
  8816.860  8816.840  0.500  0.872639  121.035028  50.574182  15.907395
  8820.968  8820.950  0.500  0.870831  120.939154  50.625561  15.945905
  8825.103  8825.080  0.500  0.868995  120.826039  50.671141  15.982681
  8829.242  8829.230  0.500  0.867169  120.711266  50.715553  16.021208
  8833.419  8833.390  0.500  0.865604  120.595064  50.746099  16.055708
  8837.596  8837.580  0.500  0.863619  120.483764  50.799991  16.097244
  8841.798  8841.780  0.500  0.861882  120.374397  50.842117  16.133502
  8846.030  8846.010  0.500  0.860015  120.249807  50.884405  16.169697
  8850.270  8850.250  0.500  0.858293  120.144461  50.927442  16.208499
  8854.528  8854.510  0.500  0.856531  120.021730  50.965125  16.245326
  8858.811  8858.790  0.500  0.854814  119.903542  51.002470  16.282008
  8863.107  8863.090  0.500  0.853095  119.785189  51.039776  16.319062
  8867.428  8867.410  0.500  0.851151  119.663302  51.087066  16.359140
  8871.774  8871.750  0.500  0.849106  119.541857  51.139667  16.399633
  8876.131  8876.110  0.500  0.847162  119.445718  51.197967  16.443129
  8880.510  8880.490  0.500  0.845238  119.303400  51.235469  16.480348
  8884.903  8884.880  0.500  0.843377  119.181040  51.278275  16.518229
  8889.317  8889.300  0.500  0.841466  119.067513  51.327390  16.557139
  8893.764  8893.730  0.500  0.839592  118.929737  51.364173  16.591650
  8898.201  8898.180  0.500  0.837832  118.805404  51.400872  16.627157
  8902.663  8902.650  0.500  0.835867  118.670051  51.443297  16.664985
  8907.153  8907.140  0.500  0.834060  118.506431  51.465253  16.700096
  8911.676  8911.650  0.500  0.832165  118.032428  51.356639  16.689305
  8916.197  8916.180  0.500  0.830244  118.223719  51.538791  16.774766
  8920.749  8920.730  0.500  0.828417  118.212148  51.627998  16.833215
