# XDI/1.0 BlueSky/1.10.0 BMM/2023-1.0-py310-tiled
# Beamline.name: BMM (06BM) -- Beamline for Materials Measurement (NIST)
# Beamline.xray_source: NSLS-II three-pole wiggler
# Beamline.collimation: paraboloid mirror, 5 nm Rh on 30 nm Pt
# Beamline.focusing: not in use
# Beamline.harmonic_rejection: flat mirror, Si stripe, pitch = 7.0 mrad relative to beam
# Beamline.software: Bluesky 1.10.0, Ophyd 1.7.0, DataBroker 2.0.0b13, Python 3.10.8, 2023-1.0-py310-tiled
# Detector.I0: 10 cm N2
# Detector.I1: 25 cm N2
# Detector.I2: 25 cm N2
# Element.symbol: Sm
# Element.edge: L3
# Element.reference: Sm
# Element.reference_material: Sm2O3
# Facility.name: NSLS-II
# Facility.energy: 3.0
# Facility.current: 400.2
# Facility.mode: top-off
# Facility.GUP: 123456
# Facility.SAF: 301027
# Facility.cycle: 2023-2
# Mono.name: Si(111)
# Mono.d_spacing: 3.1351860
# Mono.encoder_resolution: 0.0000050 deg/ct
# Mono.angle_offset: 16.0754326 deg
# Mono.scan_mode: pseudo channel cut
# Mono.scan_type: step
# Mono.direction: forward in energy
# Sample.name: Sm2TiO5
# Sample.prep: Powder in PEG pellet
# Sample.x: 149.848 mm
# Sample.y: 114.690 mm
# Sample.SDD_position: 205.000 mm
# Scan.experimenters: Bruce Ravel
# Scan.edge_energy: 6716.2
# Scan.start_time: 2023-05-08T17:11:21
# Scan.end_time: 2023-05-08T17:17:26
# Scan.transient_id: 75434
# Scan.uid: bf9bc973-270c-40ed-9c1e-74203cf8906c
# Scan.plot_hint: ln(I0/It)  --  ln($5/$6)
# Column.1: energy eV
# Column.2: requested_energy eV
# Column.3: measurement_time seconds
# Column.4: xmu 
# Column.5: I0 nA
# Column.6: It nA
# Column.7: Ir nA
# ///////////
# sample courtesy Martin Stennett, University of Sheffield
# -----------
# energy  requested_energy  measurement_time  xmu  I0  It  Ir
  6516.205  6516.200  0.500  2.148504  150.957068  17.610430  1.500187
  6526.086  6526.200  0.500  2.137225  151.159607  17.834074  1.534720
  6536.230  6536.200  0.500  2.125246  151.355470  18.072385  1.571740
  6546.269  6546.200  0.500  2.114494  151.505540  18.285854  1.606897
  6556.209  6556.200  0.500  2.103080  151.626143  18.510497  1.643288
  6566.222  6566.200  0.500  2.091408  151.788453  18.747857  1.681456
  6576.214  6576.200  0.500  2.080404  151.988061  18.980231  1.718915
  6586.218  6586.200  0.500  2.069314  151.846923  19.174072  1.754758
  6596.217  6596.200  0.500  2.058143  152.288192  19.445810  1.797126
  6606.216  6606.200  0.500  2.047213  152.400532  19.674024  1.836826
  6616.216  6616.200  0.500  2.036285  152.560329  19.911050  1.877485
  6626.214  6626.200  0.500  2.025665  152.687787  20.140456  1.917602
  6636.215  6636.200  0.500  2.015340  152.826486  20.367956  1.958196
  6646.212  6646.200  0.500  2.005066  152.944620  20.594203  1.998615
  6657.153  6656.200  0.500  1.993840  152.831218  20.811265  2.038046
  6666.179  6666.200  0.500  1.983929  153.154670  21.063020  2.079774
  6676.178  6676.200  0.500  1.973688  153.233726  21.290822  2.116259
  6686.179  6686.200  0.500  1.964808  153.337116  21.495223  2.146095
  6688.185  6688.200  0.500  1.962843  153.352462  21.539655  2.150796
  6690.183  6690.200  0.500  1.961500  153.373936  21.571623  2.153428
  6692.188  6692.200  0.500  1.959887  153.384555  21.607944  2.155963
  6694.188  6694.200  0.500  1.958745  153.387551  21.633059  2.155235
  6696.190  6696.200  0.500  1.958071  153.398320  21.649166  2.152816
  6698.189  6698.200  0.500  1.957114  153.401875  21.670397  2.147961
  6700.189  6700.200  0.500  1.956824  153.405745  21.677225  2.138666
  6702.193  6702.200  0.500  1.956614  153.421302  21.683975  2.124497
  6704.196  6704.200  0.500  1.957621  153.427818  21.663065  2.101978
  6706.194  6706.200  0.500  1.959911  153.441110  21.615399  2.063644
  6706.685  6706.700  0.500  1.961054  153.444483  21.591172  2.050275
  6707.184  6707.200  0.500  1.962368  153.448566  21.563411  2.034925
  6707.681  6707.700  0.500  1.963335  153.444608  21.542001  2.018605
  6708.184  6708.200  0.500  1.965133  153.433958  21.501820  1.998120
  6708.682  6708.700  0.500  1.967026  153.423603  21.459692  1.973339
  6709.190  6709.200  0.500  1.969361  153.423469  21.409629  1.944991
  6709.684  6709.700  0.500  1.972045  153.428343  21.352919  1.913458
  6710.185  6710.200  0.500  1.975087  153.424557  21.287547  1.878672
  6710.687  6710.700  0.500  1.978225  153.417798  21.219905  1.844600
  6711.188  6711.200  0.500  1.981079  153.415113  21.159063  1.812495
  6711.688  6711.700  0.500  1.984097  153.411286  21.094778  1.779495
  6712.189  6712.200  0.500  1.987963  153.415844  21.014016  1.737974
  6712.689  6712.700  0.500  1.992736  153.412212  20.913458  1.687026
  6713.191  6713.200  0.500  1.998734  153.417425  20.789102  1.628030
  6713.687  6713.700  0.500  2.005347  153.422620  20.652765  1.562943
  6714.189  6714.200  0.500  2.012825  153.417344  20.498198  1.491425
  6714.691  6714.700  0.500  2.021201  153.417315  20.327208  1.413044
  6715.195  6715.200  0.500  2.031131  153.430137  20.128054  1.325075
  6715.693  6715.700  0.500  2.042699  153.433068  19.896931  1.226941
  6716.193  6716.200  0.500  2.057197  153.428513  19.609956  1.111541
  6716.688  6716.700  0.500  2.074460  153.424506  19.273835  0.985114
  6717.192  6717.200  0.500  2.093690  153.423026  18.906564  0.856617
  6717.691  6717.700  0.500  2.114268  153.421921  18.521335  0.731671
  6718.196  6718.200  0.500  2.135293  153.412849  18.134918  0.615321
  6718.698  6718.700  0.500  2.154950  153.402004  17.780662  0.517541
  6719.197  6719.200  0.500  2.172239  153.391166  17.474661  0.441805
  6719.696  6719.700  0.500  2.187544  153.380090  17.208016  0.383445
  6720.189  6720.200  0.500  2.199921  153.391459  16.997601  0.341420
  6720.694  6720.700  0.500  2.209076  153.387676  16.842279  0.312632
  6721.195  6721.200  0.500  2.215152  153.392539  16.740795  0.294932
  6721.700  6721.700  0.500  2.218928  153.398686  16.678369  0.285824
  6722.200  6722.200  0.500  2.220016  153.405372  16.660953  0.284804
  6722.697  6722.700  0.500  2.218875  153.415991  16.681128  0.290785
  6723.195  6723.200  0.500  2.215153  153.403906  16.742012  0.303531
  6723.696  6723.700  0.500  2.208720  153.400756  16.849724  0.322765
  6724.198  6724.200  0.500  2.199822  153.405911  17.000882  0.349480
  6724.696  6724.700  0.500  2.189574  153.411929  17.176682  0.381356
  6725.199  6725.200  0.500  2.178286  153.404907  17.370882  0.418818
  6725.699  6725.700  0.500  2.166066  153.409995  17.585025  0.461780
  6726.197  6726.200  0.500  2.153570  153.414236  17.806641  0.507786
  6726.696  6726.700  0.500  2.142611  153.417075  18.003193  0.553522
  6727.198  6727.200  0.500  2.131903  153.418587  18.197186  0.600445
  6727.702  6727.700  0.500  2.121899  153.424955  18.380913  0.646294
  6728.204  6728.200  0.500  2.113208  153.421021  18.540876  0.688220
  6728.700  6728.700  0.500  2.106531  153.413888  18.664220  0.722738
  6729.199  6729.200  0.500  2.100466  153.402849  18.776414  0.752546
  6729.698  6729.700  0.500  2.094870  153.394610  18.880776  0.777825
  6730.200  6730.200  0.500  2.090616  153.396845  18.961536  0.796960
  6730.706  6730.700  0.500  2.087604  153.398814  19.018977  0.810914
  6731.205  6731.200  0.500  2.084288  153.390632  19.081124  0.822079
  6731.704  6731.700  0.500  2.081259  153.385953  19.138425  0.831104
  6732.207  6732.200  0.500  2.079081  153.369708  19.178134  0.837652
  6732.702  6732.700  0.500  2.077428  153.371442  19.210074  0.842526
  6733.205  6733.200  0.500  2.076015  153.370589  19.237127  0.847318
  6733.701  6733.700  0.500  2.074986  153.368430  19.256670  0.851114
  6734.202  6734.200  0.500  2.074217  153.918652  19.340606  0.857783
  6734.705  6734.700  0.500  2.074016  153.911684  19.343623  0.860569
  6735.205  6735.200  0.500  2.073960  153.903172  19.343648  0.863010
  6735.706  6735.700  0.500  2.073983  153.897998  19.342554  0.865183
  6736.202  6736.200  0.500  2.074082  153.901842  19.341112  0.866536
  6736.702  6736.700  0.500  2.074668  153.900993  19.329683  0.867902
  6737.196  6737.200  0.500  2.074878  153.894681  19.324827  0.868922
  6737.697  6737.700  0.500  2.075090  153.893338  19.320551  0.870034
  6738.199  6738.200  0.500  2.075624  153.887224  19.309476  0.870611
  6738.703  6738.700  0.500  2.075828  153.885202  19.305282  0.871300
  6739.199  6739.200  0.500  2.075822  153.897350  19.306930  0.872134
  6739.696  6739.700  0.500  2.075344  153.894798  19.315832  0.872736
  6740.198  6740.200  0.500  2.074854  153.894676  19.325293  0.873815
  6740.692  6740.700  0.500  2.074256  153.905656  19.338233  0.873943
  6741.201  6741.200  0.500  2.073548  153.907163  19.352103  0.874432
  6742.194  6742.190  0.500  2.072054  153.899290  19.380060  0.874906
  6743.191  6743.190  0.500  2.069412  153.899271  19.431316  0.874676
  6744.218  6744.210  0.500  2.067756  153.892241  19.462643  0.871919
  6745.266  6745.260  0.500  2.066829  153.892733  19.480747  0.865587
  6746.328  6746.320  0.500  2.067178  153.874621  19.471662  0.855405
  6747.415  6747.400  0.500  2.068835  153.873389  19.439261  0.840516
  6748.516  6748.500  0.500  2.071195  153.879297  19.394183  0.823397
  6749.631  6749.620  0.500  2.074006  153.876295  19.339369  0.805713
  6750.781  6750.760  0.500  2.077725  153.875471  19.267473  0.786289
  6751.904  6751.910  0.500  2.081342  153.861691  19.196195  0.769276
  6753.080  6753.090  0.500  2.084487  153.860278  19.135747  0.754161
  6754.273  6754.280  0.500  2.087037  153.849384  19.085660  0.741565
  6755.498  6755.500  0.500  2.088225  153.868497  19.065370  0.733997
  6756.723  6756.730  0.500  2.088519  153.877750  19.060905  0.730418
  6757.979  6757.980  0.500  2.086799  153.874531  19.093311  0.733196
  6759.250  6759.250  0.500  2.083812  153.864713  19.149218  0.740815
  6760.544  6760.540  0.500  2.079345  153.858387  19.234155  0.753590
  6761.858  6761.850  0.500  2.074303  153.858051  19.331337  0.769694
  6763.187  6763.180  0.500  2.069455  153.864147  19.426050  0.787684
  6764.545  6764.530  0.500  2.064806  153.868859  19.517175  0.806421
  6765.905  6765.900  0.500  2.060807  153.871257  19.595677  0.823965
  6767.287  6767.280  0.500  2.057578  153.884733  19.660779  0.838690
  6768.704  6768.690  0.500  2.054667  153.876309  19.717027  0.851060
  6770.114  6770.110  0.500  2.052375  153.869842  19.761437  0.860490
  6771.555  6771.550  0.500  2.050513  153.882769  19.799927  0.867364
  6773.021  6773.010  0.500  2.048841  153.881930  19.832953  0.872371
  6774.495  6774.490  0.500  2.047328  153.895065  19.864676  0.876194
  6775.999  6775.990  0.500  2.045586  153.897265  19.899595  0.878918
  6777.517  6777.510  0.500  2.044187  153.901676  19.928033  0.880320
  6779.059  6779.050  0.500  2.042577  153.921322  19.962685  0.882226
  6780.613  6780.610  0.500  2.040855  153.921461  19.997097  0.883694
  6782.185  6782.180  0.500  2.039541  153.923267  20.023626  0.884563
  6783.780  6783.780  0.500  2.038441  153.929346  20.046458  0.885140
  6785.393  6785.390  0.500  2.037352  153.938440  20.069494  0.885571
  6787.036  6787.030  0.500  2.036557  153.955719  20.087703  0.884794
  6788.686  6788.680  0.500  2.035388  153.977464  20.114040  0.884463
  6790.350  6790.350  0.500  2.034526  153.995927  20.133808  0.883707
  6792.046  6792.040  0.500  2.033668  154.012285  20.153235  0.882484
  6793.754  6793.750  0.500  2.032691  152.691771  19.999970  0.873384
  6795.485  6795.480  0.500  2.032132  147.163937  19.286695  0.834452
  6797.231  6797.230  0.500  2.031248  153.107074  20.083311  0.870301
  6798.997  6798.990  0.500  2.030869  153.493010  20.141578  0.871180
  6800.780  6800.780  0.500  2.030147  153.609890  20.171470  0.872591
  6802.585  6802.580  0.500  2.029383  153.664841  20.194116  0.873787
  6804.418  6804.410  0.500  2.028307  153.698104  20.220216  0.876445
  6806.253  6806.250  0.500  2.026832  153.710608  20.251721  0.878421
  6808.114  6808.110  0.500  2.025227  153.676452  20.279740  0.880724
  6809.990  6809.990  0.500  2.023277  152.962794  20.224963  0.879555
  6811.900  6811.890  0.500  2.021101  145.209184  19.241604  0.833219
  6813.813  6813.810  0.500  2.018776  153.269030  20.356884  0.887245
  6815.759  6815.750  0.500  2.016651  153.539280  20.436149  0.892602
  6817.712  6817.710  0.500  2.014421  153.612841  20.491584  0.897102
  6819.685  6819.680  0.500  2.012172  153.619334  20.538599  0.901425
  6821.690  6821.680  0.500  2.010247  153.251392  20.528888  0.903911
  6823.695  6823.690  0.500  2.007853  142.896216  19.187625  0.846265
  6825.728  6825.720  0.500  2.005592  153.076406  20.601117  0.912296
  6827.785  6827.780  0.500  2.003335  153.400010  20.691311  0.919202
  6829.861  6829.850  0.500  2.000729  153.469005  20.754627  0.925143
  6831.949  6831.940  0.500  1.998367  153.507723  20.808972  0.931362
  6834.061  6834.050  0.500  1.995748  153.528886  20.866412  0.937893
  6836.191  6836.180  0.500  1.993144  153.517812  20.919301  0.945228
  6838.324  6838.320  0.500  1.990798  153.224645  20.928403  0.950891
  6840.500  6840.490  0.500  1.988378  142.447358  19.503502  0.891891
  6842.693  6842.680  0.500  1.986142  152.457279  20.920765  0.959484
  6844.886  6844.880  0.500  1.984248  152.971038  21.031066  0.966597
  6847.112  6847.100  0.500  1.982349  153.105370  21.089552  0.970707
  6849.359  6849.350  0.500  1.980507  153.147502  21.134238  0.971818
  6851.618  6851.610  0.500  1.979118  153.171195  21.166895  0.972203
  6853.904  6853.890  0.500  1.977725  153.200221  21.200416  0.972148
  6856.199  6856.190  0.500  1.976263  153.216336  21.233665  0.973015
  6858.514  6858.510  0.500  1.974695  153.216348  21.266984  0.973048
  6860.865  6860.850  0.500  1.973236  152.947265  21.260623  0.970827
  6863.207  6863.200  0.500  1.971774  153.212153  21.328625  0.973016
  6865.595  6865.580  0.500  1.969860  153.276713  21.378487  0.974813
  6867.978  6867.970  0.500  1.967828  153.277818  21.422118  0.976524
  6870.399  6870.390  0.500  1.965875  153.304280  21.467708  0.980337
  6872.830  6872.820  0.500  1.963530  153.314389  21.519526  0.986022
  6875.283  6875.270  0.500  1.961276  153.335502  21.571045  0.992974
  6877.762  6877.750  0.500  1.959061  153.345534  21.620312  0.999845
  6880.254  6880.240  0.500  1.956537  153.342348  21.674500  1.007775
  6882.762  6882.750  0.500  1.954064  153.336317  21.727306  1.014945
  6885.299  6885.270  0.500  1.951609  153.336714  21.780768  1.021664
  6887.833  6887.820  0.500  1.949152  153.353671  21.836770  1.027318
  6890.399  6890.390  0.500  1.946806  153.348820  21.887361  1.032107
  6892.977  6892.970  0.500  1.944664  153.335673  21.932402  1.035326
  6895.596  6895.580  0.500  1.942260  153.338532  21.985619  1.038500
  6898.212  6898.200  0.500  1.939673  153.322995  22.040326  1.042018
  6900.867  6900.850  0.500  1.937289  153.297736  22.089286  1.045183
  6903.522  6903.510  0.500  1.934735  153.282486  22.143578  1.048720
  6906.208  6906.190  0.500  1.932379  153.258803  22.192380  1.052224
  6908.907  6908.890  0.500  1.929700  153.226171  22.247174  1.056729
  6911.621  6911.610  0.500  1.926720  153.150042  22.302477  1.062092
  6914.354  6914.350  0.500  1.924179  153.091207  22.350640  1.067751
  6917.111  6917.100  0.500  1.921660  153.055731  22.401811  1.074455
  6919.892  6919.880  0.500  1.919133  152.972277  22.446250  1.080623
  6922.694  6922.670  0.500  1.916557  152.937491  22.499041  1.087430
  6925.503  6925.490  0.500  1.914263  152.898616  22.544982  1.094079
  6928.326  6928.320  0.500  1.911980  152.871262  22.592449  1.100448
  6931.184  6931.170  0.500  1.909376  152.825503  22.644585  1.106797
  6934.067  6934.050  0.500  1.906969  152.797315  22.694959  1.113218
  6936.950  6936.940  0.500  1.904579  152.787501  22.747810  1.118824
  6939.869  6939.850  0.500  1.902521  152.764714  22.791272  1.122831
  6942.779  6942.770  0.500  1.900470  152.744215  22.835016  1.127007
  6945.728  6945.720  0.500  1.898204  152.706642  22.881185  1.130683
  6948.701  6948.690  0.500  1.895562  152.662787  22.935123  1.134783
  6951.683  6951.670  0.500  1.893317  152.634227  22.982378  1.138461
  6954.692  6954.680  0.500  1.890499  152.615124  23.044338  1.143068
  6957.712  6957.700  0.500  1.887845  152.580627  23.100362  1.147918
  6960.765  6960.750  0.500  1.884964  152.558795  23.163701  1.153510
  6963.820  6963.810  0.500  1.881958  152.537698  23.230218  1.159833
  6966.899  6966.890  0.500  1.879252  152.520315  23.290513  1.167157
  6969.998  6969.990  0.500  1.876655  152.493282  23.346924  1.173296
  6973.117  6973.110  0.500  1.873911  152.456291  23.405410  1.180115
  6976.261  6976.250  0.500  1.871438  152.427289  23.458902  1.187634
  6979.409  6979.400  0.500  1.868524  152.371680  23.518778  1.194850
  6982.590  6982.580  0.500  1.865732  152.338947  23.579450  1.201779
  6985.782  6985.770  0.500  1.863066  152.294543  23.635518  1.209349
  6989.006  6988.990  0.500  1.860370  152.259633  23.693893  1.215402
  6992.232  6992.220  0.500  1.857958  152.225678  23.745813  1.220642
  6995.485  6995.470  0.500  1.855295  152.161046  23.799021  1.225766
  6998.762  6998.750  0.500  1.852505  152.115530  23.858366  1.230793
  7002.050  7002.040  0.500  1.850050  152.061617  23.908533  1.235347
  7005.363  7005.350  0.500  1.847168  152.026440  23.972004  1.241504
  7008.687  7008.670  0.500  1.844086  151.969684  24.037026  1.248515
  7012.031  7012.020  0.500  1.841206  151.913274  24.097395  1.255914
  7015.401  7015.390  0.500  1.838127  151.874746  24.165564  1.262941
  7018.779  7018.770  0.500  1.835084  151.832735  24.232530  1.271461
  7022.189  7022.180  0.500  1.831752  151.786596  24.306017  1.279540
  7025.607  7025.600  0.500  1.828771  151.741663  24.371367  1.287398
  7029.058  7029.050  0.500  1.826134  151.691071  24.427556  1.294981
  7032.521  7032.510  0.500  1.823336  151.627502  24.485728  1.303052
  7036.000  7035.990  0.500  1.820460  151.550754  24.543841  1.311540
  7039.497  7039.490  0.500  1.817428  151.509788  24.611706  1.320653
  7043.019  7043.010  0.500  1.814486  151.463220  24.676645  1.328407
  7046.555  7046.550  0.500  1.811609  151.383678  24.734741  1.336873
  7050.109  7050.100  0.500  1.809010  151.317040  24.788186  1.343444
  7053.687  7053.680  0.500  1.806129  151.271407  24.852201  1.350929
  7057.289  7057.280  0.500  1.803735  151.207085  24.901195  1.357514
  7060.897  7060.890  0.500  1.800817  151.169565  24.967757  1.364823
  7064.526  7064.520  0.500  1.797876  150.985274  25.010777  1.370593
  7068.182  7068.180  0.500  1.794865  150.984307  25.086030  1.378463
  7071.854  7071.850  0.500  1.791668  150.843005  25.142803  1.385409
  7075.544  7075.540  0.500  1.788547  149.423721  24.984083  1.380799
  7079.256  7079.250  0.500  1.785380  150.718462  25.280507  1.401125
  7082.983  7082.980  0.500  1.782185  149.391398  25.138091  1.398600
  7086.727  7086.720  0.500  1.778968  150.525227  25.410507  1.418948
  7090.497  7090.490  0.500  1.776210  150.458048  25.469309  1.426520
  7094.285  7094.280  0.500  1.772672  150.363633  25.543532  1.435775
  7098.089  7098.080  0.500  1.769527  150.299267  25.613038  1.445856
  7101.914  7101.910  0.500  1.766449  150.226691  25.679594  1.455228
  7105.753  7105.750  0.500  1.763465  150.145683  25.742438  1.464841
  7109.621  7109.610  0.500  1.760222  150.042044  25.808240  1.474221
  7113.498  7113.490  0.500  1.757056  149.727604  25.835820  1.481266
  7117.398  7117.390  0.500  1.754462  149.587473  25.878681  1.489080
  7121.317  7121.310  0.500  1.751448  149.369857  25.919039  1.496930
  7125.257  7125.250  0.500  1.748348  149.153742  25.961882  1.504351
  7129.220  7129.210  0.500  1.745284  149.428627  26.089559  1.516792
  7133.190  7133.180  0.500  1.742157  149.145389  26.121661  1.524121
  7137.188  7137.180  0.500  1.739108  149.082155  26.190307  1.534013
  7141.193  7141.190  0.500  1.735781  149.016026  26.265925  1.543907
  7145.238  7145.230  0.500  1.732618  148.965847  26.340264  1.553986
  7149.289  7149.280  0.500  1.729317  148.902313  26.416087  1.564346
  7153.354  7153.350  0.500  1.725996  148.825644  26.490332  1.574142
  7157.452  7157.440  0.500  1.722695  148.729273  26.560695  1.584315
  7161.559  7161.550  0.500  1.719347  148.606139  26.627706  1.594011
  7165.689  7165.680  0.500  1.715953  148.442943  26.688907  1.604665
  7169.843  7169.830  0.500  1.712910  148.289020  26.742470  1.613451
  7173.997  7173.990  0.500  1.709992  148.154540  26.796296  1.623458
  7178.199  7178.180  0.500  1.706513  148.031425  26.867351  1.634354
  7182.396  7182.380  0.500  1.703287  147.899769  26.930196  1.644853
  7186.641  7186.610  0.500  1.700177  147.766227  26.989671  1.655384
  7190.871  7190.850  0.500  1.697010  147.547276  27.035159  1.664759
  7195.123  7195.110  0.500  1.693918  147.400448  27.091893  1.675909
  7199.403  7199.390  0.500  1.690807  147.286678  27.155349  1.686577
  7203.706  7203.690  0.500  1.687409  147.134405  27.219610  1.697214
  7208.025  7208.010  0.500  1.684295  146.942734  27.268929  1.707056
  7212.370  7212.350  0.500  1.680906  146.771438  27.329605  1.717312
  7216.729  7216.710  0.500  1.677431  146.589986  27.390827  1.727601
  7221.111  7221.090  0.500  1.674191  146.408833  27.445756  1.737262
  7225.469  7225.480  0.500  1.670757  146.178180  27.496789  1.747316
  7229.900  7229.900  0.500  1.667174  146.222886  27.603937  1.759791
  7234.359  7234.330  0.500  1.663546  146.021656  27.666139  1.770896
  7238.770  7238.780  0.500  1.659782  145.873510  27.742279  1.782724
  7243.286  7243.250  0.500  1.656569  145.715485  27.801424  1.794857
  7247.751  7247.740  0.500  1.653170  145.468549  27.848793  1.805147
  7252.244  7252.250  0.500  1.649889  145.266153  27.901456  1.816866
  7256.767  7256.780  0.500  1.646497  145.304327  28.003615  1.832072
  7261.361  7261.330  0.500  1.643082  144.675086  27.977720  1.839355
  7265.882  7265.900  0.500  1.641349  138.988099  26.924566  1.773330
  7270.497  7270.480  0.500  1.636608  145.277516  28.276686  1.875699
  7275.071  7275.090  0.500  1.633259  145.014490  28.320195  1.886154
  7279.689  7279.710  0.500  1.629703  145.106609  28.439112  1.902463
  7284.340  7284.360  0.500  1.626182  142.411558  28.009382  1.881580
  7289.004  7289.020  0.500  1.622933  144.698369  28.551760  1.923608
