# XDI/1.0 BlueSky/1.10.0 BMM/2023-1.0-py310-tiled
# Beamline.name: BMM (06BM) -- Beamline for Materials Measurement (NIST)
# Beamline.xray_source: NSLS-II three-pole wiggler
# Beamline.collimation: paraboloid mirror, 5 nm Rh on 30 nm Pt
# Beamline.focusing: not in use
# Beamline.harmonic_rejection: flat mirror, Pt stripe, pitch = 7.0 mrad relative to beam
# Beamline.software: Bluesky 1.10.0, Ophyd 1.7.0, DataBroker 2.0.0b13, Python 3.10.8, 2023-1.0-py310-tiled
# Detector.I0: 10 cm N2
# Detector.I1: 25 cm N2
# Detector.I2: 25 cm N2
# Element.symbol: Sr
# Element.edge: K
# Element.reference: Sr
# Element.reference_material: SrTiO3
# Facility.name: NSLS-II
# Facility.energy: 3.0
# Facility.current: 400.7
# Facility.mode: top-off
# Facility.GUP: 301027
# Facility.SAF: 310583
# Facility.cycle: 2023-2
# Mono.name: Si(111)
# Mono.d_spacing: 3.1351860
# Mono.encoder_resolution: 0.0000050 deg/ct
# Mono.angle_offset: 16.0754326 deg
# Mono.scan_mode: pseudo channel cut
# Mono.scan_type: step
# Mono.direction: forward in energy
# Sample.name: SrTiO3
# Sample.prep: PEG pellet
# Sample.x: 109.138 mm
# Sample.y: 153.150 mm
# Sample.SDD_position: 205.000 mm
# Scan.experimenters: Bruce Ravel
# Scan.edge_energy: 16104.6
# Scan.start_time: 2023-05-28T21:46:57
# Scan.end_time: 2023-05-28T21:54:39
# Scan.transient_id: 79043
# Scan.uid: 1726707c-3c5f-4bdf-900f-8e550f634988
# Scan.plot_hint: ln(It/Ir)  --  ln($6/$7)
# Column.1: energy eV
# Column.2: requested_energy eV
# Column.3: measurement_time seconds
# Column.4: xmu 
# Column.5: I0 nA
# Column.6: It nA
# Column.7: Ir nA
# ///////////
# sample courtesy Martin Stennett, University of Sheffield
# -----------
# energy  requested_energy  measurement_time  xmu  I0  It  Ir
  15904.582  15904.600  0.500  0.218742  22.544593  41.400291  33.266351
  15914.602  15914.600  0.500  0.218495  22.443413  41.224691  33.133417
  15924.635  15924.600  0.500  0.218156  22.460596  41.258828  33.172088
  15934.625  15934.600  0.500  0.217713  22.414707  41.176914  33.120921
  15944.662  15944.600  0.500  0.217353  22.351222  41.065616  33.043268
  15954.644  15954.600  0.500  0.217019  22.314121  41.004683  33.005282
  15964.649  15964.600  0.500  0.216855  22.254735  40.898478  32.925176
  15974.690  15974.600  0.500  0.216482  22.208598  40.820715  32.874843
  15984.632  15984.600  0.500  0.215996  22.035886  40.508191  32.639016
  15994.665  15994.600  0.500  0.215718  22.099022  40.625931  32.742972
  16004.631  16004.600  0.500  0.215394  22.043957  40.531209  32.677233
  16014.667  16014.600  0.500  0.215216  21.993329  40.440853  32.610174
  16024.648  16024.600  0.500  0.214921  21.759872  40.011819  32.273749
  16035.834  16034.600  0.500  0.214738  21.877536  40.242912  32.466066
  16044.714  16044.600  0.500  0.214475  21.823505  40.139233  32.390972
  16054.575  16054.600  0.500  0.214302  21.773541  40.052065  32.326191
  16064.526  16064.600  0.500  0.214259  21.718372  39.955390  32.249582
  16074.547  16074.600  0.500  0.214390  21.655559  39.843219  32.154816
  16076.494  16076.600  0.500  0.214579  21.599650  39.743857  32.068561
  16078.509  16078.600  0.500  0.214673  21.608098  39.759547  32.078217
  16080.491  16080.600  0.500  0.214741  21.633032  39.804907  32.112614
  16082.496  16082.600  0.500  0.214861  21.624829  39.792559  32.098820
  16084.501  16084.600  0.500  0.214987  21.616200  39.775687  32.081154
  16086.496  16086.600  0.500  0.215214  21.600134  39.748050  32.051582
  16088.525  16088.600  0.500  0.215550  21.589397  39.728706  32.025242
  16090.498  16090.600  0.500  0.215887  21.580033  39.716103  32.004288
  16092.517  16092.600  0.500  0.216204  21.574287  39.700508  31.981576
  16094.536  16094.600  0.500  0.216932  21.558469  39.676599  31.939060
  16094.797  16094.900  0.500  0.216931  21.557833  39.673306  31.936424
  16095.103  16095.200  0.500  0.217097  21.557182  39.672885  31.930802
  16095.398  16095.500  0.500  0.217165  21.557169  39.673458  31.929086
  16095.693  16095.800  0.500  0.217207  21.552405  39.663383  31.919622
  16096.034  16096.100  0.500  0.217368  21.557933  39.672264  31.921637
  16096.306  16096.400  0.500  0.217487  21.546021  39.651238  31.900935
  16096.601  16096.700  0.500  0.217605  21.548314  39.653746  31.899188
  16096.907  16097.000  0.500  0.217747  21.538844  39.643240  31.886211
  16097.236  16097.300  0.500  0.217832  21.539075  39.643130  31.883411
  16097.520  16097.600  0.500  0.217977  21.540752  39.640329  31.876544
  16097.872  16097.900  0.500  0.218140  21.536522  39.631746  31.864437
  16098.167  16098.200  0.500  0.218219  21.535050  39.627026  31.858135
  16098.451  16098.500  0.500  0.218476  21.527733  39.618035  31.842703
  16098.746  16098.800  0.500  0.218705  21.527318  39.618925  31.836147
  16099.030  16099.100  0.500  0.218746  21.521309  39.609717  31.827436
  16099.314  16099.400  0.500  0.218963  21.518665  39.603367  31.815436
  16099.643  16099.700  0.500  0.219210  21.511972  39.589038  31.796050
  16099.927  16100.000  0.500  0.219335  21.511358  39.585559  31.789288
  16100.256  16100.300  0.500  0.219548  21.502218  39.572951  31.772409
  16100.540  16100.600  0.500  0.219976  21.497468  39.569715  31.756199
  16100.824  16100.900  0.500  0.220051  21.500484  39.567548  31.752078
  16101.119  16101.200  0.500  0.220422  21.494103  39.558246  31.732842
  16101.448  16101.500  0.500  0.220600  21.493450  39.557377  31.726502
  16101.766  16101.800  0.500  0.220978  21.495185  39.559612  31.716292
  16102.073  16102.100  0.500  0.221448  21.496927  39.566210  31.706682
  16102.357  16102.400  0.500  0.221692  21.500043  39.571135  31.702900
  16102.663  16102.700  0.500  0.221936  21.499316  39.566170  31.691179
  16102.936  16103.000  0.500  0.222447  21.499468  39.570906  31.678772
  16103.254  16103.300  0.500  0.222794  21.496113  39.564602  31.662762
  16103.561  16103.600  0.500  0.223252  21.499626  39.570821  31.653239
  16103.867  16103.900  0.500  0.223771  21.503317  39.578790  31.643181
  16104.174  16104.200  0.500  0.224144  21.495496  39.559487  31.615937
  16104.447  16104.500  0.500  0.224802  21.494074  39.560124  31.595652
  16104.753  16104.800  0.500  0.225499  21.494641  39.564256  31.576927
  16105.060  16105.100  0.500  0.226209  21.491078  39.554562  31.546793
  16105.378  16105.400  0.500  0.227065  21.489031  39.551573  31.517429
  16105.696  16105.700  0.500  0.227918  21.488796  39.550212  31.489449
  16105.992  16106.000  0.500  0.229098  21.485750  39.546321  31.449233
  16106.287  16106.300  0.500  0.230239  21.487311  39.553261  31.418898
  16106.571  16106.600  0.500  0.231355  21.481359  39.540121  31.373408
  16106.867  16106.900  0.500  0.232563  21.484181  39.543293  31.338056
  16107.162  16107.200  0.500  0.234356  21.473429  39.522074  31.265117
  16107.480  16107.500  0.500  0.236082  21.475835  39.523407  31.212276
  16107.798  16107.800  0.500  0.238246  21.474699  39.530839  31.150653
  16108.105  16108.100  0.500  0.240385  21.480754  39.535821  31.088001
  16108.378  16108.400  0.500  0.242571  21.475656  39.526070  31.012474
  16108.674  16108.700  0.500  0.245130  21.469929  39.522281  30.930248
  16108.980  16109.000  0.500  0.248037  21.471840  39.522844  30.840901
  16109.299  16109.300  0.500  0.251129  21.471445  39.520364  30.743759
  16109.594  16109.600  0.500  0.254315  21.468194  39.509487  30.637518
  16109.935  16109.900  0.500  0.258100  21.466667  39.512056  30.523769
  16110.208  16110.200  0.500  0.261952  21.462842  39.508949  30.404042
  16110.492  16110.500  0.500  0.265974  21.465196  39.511690  30.284089
  16110.788  16110.800  0.500  0.270235  21.462794  39.506668  30.151485
  16111.106  16111.100  0.500  0.275622  21.461951  39.507545  29.990165
  16111.390  16111.400  0.500  0.281072  21.458200  39.498942  29.820664
  16111.709  16111.700  0.500  0.287322  21.452834  39.491563  29.629339
  16112.004  16112.000  0.500  0.294279  21.450047  39.486300  29.420012
  16112.300  16112.300  0.500  0.301232  21.446418  39.483388  29.214010
  16112.573  16112.600  0.500  0.308621  21.448341  39.488162  29.002444
  16112.903  16112.900  0.500  0.317153  21.450900  39.482510  28.751913
  16113.210  16113.200  0.500  0.325833  21.444637  39.475881  28.498654
  16113.517  16113.500  0.500  0.334998  21.442363  39.470366  28.234702
  16113.824  16113.800  0.500  0.343779  21.445569  39.478419  27.993585
  16114.120  16114.100  0.500  0.352457  21.440422  39.472791  27.747742
  16114.404  16114.400  0.500  0.360737  21.439438  39.466500  27.514551
  16114.700  16114.700  0.500  0.368865  21.433775  39.454766  27.283701
  16114.984  16115.000  0.500  0.377510  21.430000  39.449797  27.045461
  16115.314  16115.300  0.500  0.386646  21.425587  39.448999  26.798944
  16115.598  16115.600  0.500  0.394585  21.426685  39.445578  26.584737
  16115.917  16115.900  0.500  0.403991  21.424438  39.443965  26.334779
  16116.213  16116.200  0.500  0.412755  21.419515  39.432404  26.097322
  16116.508  16116.500  0.500  0.422073  21.421792  39.434383  25.856587
  16116.793  16116.800  0.500  0.431238  21.426394  39.443992  25.626929
  16117.100  16117.100  0.500  0.441249  21.416491  39.428243  25.361526
  16117.430  16117.400  0.500  0.451457  21.414654  39.426620  25.102932
  16117.714  16117.700  0.500  0.460981  21.415411  39.425309  24.864138
  16118.010  16118.000  0.500  0.469358  21.413519  39.426888  24.657713
  16118.295  16118.300  0.500  0.476507  21.408587  39.417605  24.476311
  16118.591  16118.600  0.500  0.482359  21.409731  39.423621  24.337193
  16118.887  16118.900  0.500  0.486868  21.403209  39.407627  24.217882
  16119.194  16119.200  0.500  0.489294  21.403293  39.405145  24.157670
  16119.535  16119.500  0.500  0.489852  21.400403  39.403262  24.143056
  16119.808  16119.800  0.500  0.488705  21.405364  39.410732  24.175343
  16120.104  16120.100  0.500  0.485901  21.395852  39.391282  24.231264
  16120.377  16120.400  0.500  0.481680  21.458512  39.506654  24.405015
  16120.685  16120.700  0.500  0.476078  21.456814  39.501792  24.539098
  16121.004  16121.000  0.500  0.469554  21.449465  39.497366  24.696966
  16121.288  16121.300  0.500  0.462098  21.458444  39.499800  24.883321
  16121.607  16121.600  0.500  0.453684  21.443264  39.473663  25.076956
  16121.903  16121.900  0.500  0.445840  21.434081  39.462598  25.267358
  16122.199  16122.200  0.500  0.437953  21.424159  39.444962  25.456042
  16122.472  16122.500  0.500  0.430127  21.414004  39.430239  25.646481
  16122.768  16122.800  0.500  0.422536  21.406381  39.415731  25.832380
  16123.076  16123.100  0.500  0.414386  21.395800  39.397885  26.032001
  16123.383  16123.400  0.500  0.406674  21.392198  39.382337  26.223178
  16123.713  16123.700  0.500  0.399014  21.386664  39.374631  26.419642
  16123.987  16124.000  0.500  0.392863  21.389556  39.379948  26.586238
  16124.271  16124.300  0.500  0.386953  21.385369  39.370221  26.737235
  16124.567  16124.600  0.500  0.381353  21.395031  39.389853  26.900791
  16124.886  16124.900  0.500  0.376083  21.402687  39.403299  27.052160
  16125.182  16125.200  0.500  0.371678  21.412396  39.417512  27.181387
  16125.501  16125.500  0.500  0.367659  21.415816  39.423596  27.295062
  16125.797  16125.800  0.500  0.364373  21.419341  39.433095  27.391505
  16126.093  16126.100  0.500  0.361639  21.420170  39.437011  27.469208
  16126.378  16126.400  0.500  0.359400  21.422098  39.438777  27.532028
  16126.663  16126.700  0.500  0.357450  21.421553  39.438907  27.585853
  16126.959  16127.000  0.500  0.355922  21.426456  39.446946  27.633647
  16127.278  16127.300  0.500  0.354734  21.424040  39.450456  27.668958
  16127.597  16127.600  0.500  0.353825  21.426365  39.442129  27.688300
  16127.893  16127.900  0.500  0.353460  21.423604  39.441290  27.697819
  16128.201  16128.200  0.500  0.353259  21.421036  39.436877  27.700262
  16128.474  16128.500  0.500  0.353467  21.422417  39.437709  27.695086
  16128.782  16128.800  0.500  0.354126  21.415921  39.430307  27.671670
  16129.101  16129.100  0.500  0.355089  21.411606  39.423697  27.640385
  16129.420  16129.400  0.500  0.356191  21.409834  39.421709  27.608541
  16129.614  16129.600  0.500  0.356905  21.409213  39.419056  27.586996
  16130.583  16130.590  0.500  0.361201  21.401059  39.399590  27.455161
  16131.631  16131.590  0.500  0.365210  21.392254  39.383325  27.334034
  16132.623  16132.610  0.500  0.366966  21.389013  39.379259  27.283267
  16133.717  16133.660  0.500  0.366449  21.384546  39.377001  27.295809
  16134.732  16134.720  0.500  0.364727  21.386628  39.382100  27.346390
  16135.827  16135.800  0.500  0.362774  21.371941  39.357146  27.382490
  16136.945  16136.900  0.500  0.361665  21.371636  39.349566  27.407582
  16138.051  16138.020  0.500  0.361215  21.365472  39.343856  27.415957
  16139.169  16139.160  0.500  0.361562  21.359095  39.330546  27.397153
  16140.321  16140.310  0.500  0.363178  21.349573  39.312430  27.340327
  16141.508  16141.490  0.500  0.366718  21.340677  39.302865  27.237087
  16142.695  16142.680  0.500  0.371115  21.335522  39.292360  27.110342
  16143.882  16143.900  0.500  0.375667  21.313600  39.250202  26.958249
  16145.127  16145.130  0.500  0.380232  21.288973  39.205744  26.805073
  16146.383  16146.380  0.500  0.385108  21.289130  39.204366  26.673759
  16147.662  16147.650  0.500  0.390671  21.299843  39.229742  26.542948
  16148.941  16148.940  0.500  0.395919  21.305864  39.236262  26.408413
  16150.266  16150.250  0.500  0.399579  21.307192  39.236507  26.312081
  16151.592  16151.580  0.500  0.399888  21.299224  39.221665  26.294003
  16152.952  16152.930  0.500  0.396196  21.291003  39.212619  26.385186
  16154.323  16154.300  0.500  0.389396  21.285660  39.194670  26.553045
  16155.684  16155.680  0.500  0.382389  21.286403  39.201143  26.744190
  16157.101  16157.090  0.500  0.376881  21.271921  39.177612  26.875743
  16158.508  16158.510  0.500  0.374585  21.267192  39.162699  26.927286
  16159.972  16159.950  0.500  0.375609  21.259873  39.149883  26.890911
  16161.425  16161.410  0.500  0.379375  21.251262  39.137243  26.781172
  16162.924  16162.890  0.500  0.385031  21.244632  39.127713  26.623657
  16164.434  16164.390  0.500  0.389649  21.239303  39.117721  26.494227
  16165.945  16165.910  0.500  0.391002  21.227565  39.102426  26.448043
  16167.468  16167.450  0.500  0.388286  21.229864  39.104373  26.521309
  16169.014  16169.010  0.500  0.382793  21.217722  39.074838  26.647253
  16170.594  16170.580  0.500  0.376247  21.207737  39.063906  26.814757
  16172.209  16172.180  0.500  0.370395  21.186290  39.025048  26.945287
  16173.779  16173.790  0.500  0.366360  21.142845  38.943663  26.997821
  16175.429  16175.430  0.500  0.363750  21.144550  38.949541  27.072467
  16177.057  16177.080  0.500  0.362391  21.170714  39.001241  27.145247
  16178.742  16178.750  0.500  0.361288  21.166530  38.988383  27.166266
  16180.428  16180.440  0.500  0.360101  21.163553  38.983622  27.195200
  16182.171  16182.150  0.500  0.359530  21.156057  38.972899  27.203238
  16183.915  16183.880  0.500  0.360102  21.143860  38.947636  27.170066
  16185.670  16185.630  0.500  0.362718  21.140991  38.944796  27.097125
  16187.403  16187.390  0.500  0.366686  21.124522  38.914741  26.968976
  16189.206  16189.180  0.500  0.371256  21.112794  38.903548  26.838283
  16190.997  16190.980  0.500  0.375050  21.110603  38.891954  26.728682
  16192.823  16192.810  0.500  0.377694  21.099927  38.871262  26.643935
  16194.661  16194.650  0.500  0.379522  21.088353  38.853177  26.582898
  16196.511  16196.510  0.500  0.380286  21.076701  38.835787  26.550712
  16198.407  16198.390  0.500  0.380695  21.060493  38.805686  26.519266
  16200.303  16200.290  0.500  0.380989  21.044491  38.774140  26.489919
  16202.212  16202.210  0.500  0.382095  21.044047  38.775429  26.461513
  16204.179  16204.150  0.500  0.382640  21.040054  38.762527  26.438314
  16206.134  16206.110  0.500  0.381629  21.026461  38.745342  26.453308
  16208.102  16208.080  0.500  0.378666  21.021730  38.735524  26.525095
  16210.058  16210.080  0.500  0.375155  21.011874  38.721124  26.608497
  16212.096  16212.090  0.500  0.372195  20.999781  38.699087  26.672182
  16214.145  16214.120  0.500  0.369864  20.990635  38.681309  26.722146
  16216.184  16216.180  0.500  0.368238  20.981736  38.667181  26.755865
  16218.258  16218.250  0.500  0.366600  20.963641  38.629901  26.773874
  16220.378  16220.340  0.500  0.365300  20.956680  38.624060  26.804658
  16222.464  16222.450  0.500  0.364278  20.942803  38.596847  26.813158
  16224.586  16224.580  0.500  0.363169  20.928151  38.572912  26.826257
  16226.719  16226.720  0.500  0.362193  20.917285  38.550621  26.836936
  16228.888  16228.890  0.500  0.361403  20.903168  38.524823  26.840175
  16231.069  16231.080  0.500  0.361645  20.887460  38.498278  26.815178
  16233.308  16233.280  0.500  0.362434  20.876413  38.480964  26.781982
  16235.513  16235.500  0.500  0.363563  20.829217  38.393443  26.690916
  16237.777  16237.750  0.500  0.364364  20.823725  38.385003  26.663705
  16240.064  16240.010  0.500  0.365371  20.849910  38.434505  26.671201
  16242.306  16242.290  0.500  0.366609  20.837980  38.407255  26.619331
  16244.594  16244.590  0.500  0.368540  20.821379  38.383359  26.551449
  16246.907  16246.910  0.500  0.370225  20.813844  38.370431  26.497821
  16249.243  16249.250  0.500  0.371206  20.804003  38.343601  26.453312
  16251.602  16251.600  0.500  0.372066  20.789894  38.323991  26.417061
  16254.009  16253.980  0.500  0.372362  20.755235  38.263659  26.367671
  16256.394  16256.370  0.500  0.371707  20.739967  38.237551  26.366953
  16258.814  16258.790  0.500  0.370395  20.754346  38.263422  26.419412
  16261.223  16261.220  0.500  0.368429  20.745313  38.250675  26.462600
  16263.679  16263.670  0.500  0.366168  20.736484  38.226897  26.506005
  16266.113  16266.150  0.500  0.364272  20.720654  38.201352  26.538573
  16268.663  16268.640  0.500  0.362942  20.712853  38.190850  26.566574
  16271.168  16271.150  0.500  0.362369  20.698777  38.168089  26.565961
  16273.696  16273.670  0.500  0.362367  20.681252  38.141197  26.547309
  16276.249  16276.220  0.500  0.362320  20.662364  38.102703  26.521742
  16278.803  16278.790  0.500  0.362574  20.653317  38.084792  26.502564
  16281.380  16281.370  0.500  0.363220  20.648040  38.075351  26.478883
  16283.947  16283.980  0.500  0.363912  20.627731  38.035764  26.433038
  16286.619  16286.600  0.500  0.364696  20.618790  38.025217  26.405004
  16289.269  16289.250  0.500  0.364875  20.600528  37.993635  26.378355
  16291.931  16291.910  0.500  0.364472  20.584355  37.965376  26.369349
  16294.630  16294.590  0.500  0.363445  20.573417  37.947117  26.383751
  16297.317  16297.290  0.500  0.362701  20.563098  37.923618  26.387031
  16300.005  16300.010  0.500  0.362403  20.548680  37.898230  26.377236
  16302.753  16302.750  0.500  0.362940  20.529902  37.865248  26.340146
  16305.547  16305.500  0.500  0.363467  20.465630  37.747374  26.244309
  16308.332  16308.280  0.500  0.364031  20.486235  37.795017  26.262614
  16311.082  16311.070  0.500  0.363887  20.492355  37.800605  26.270288
  16313.926  16313.890  0.500  0.363682  20.482892  37.781783  26.262586
  16316.748  16316.720  0.500  0.363705  20.465369  37.750051  26.239922
  16319.560  16319.570  0.500  0.363951  20.453701  37.728666  26.218599
  16322.442  16322.450  0.500  0.364115  20.439183  37.705889  26.198477
  16325.372  16325.340  0.500  0.363619  20.417924  37.667055  26.184491
  16328.268  16328.250  0.500  0.362634  20.400403  37.641107  26.192226
  16331.212  16331.170  0.500  0.361508  20.390365  37.622522  26.208779
  16334.134  16334.120  0.500  0.360082  20.376260  37.592757  26.225418
  16337.080  16337.090  0.500  0.359123  20.362790  37.575278  26.238396
  16340.074  16340.070  0.500  0.358414  20.346769  37.538438  26.231263
  16343.104  16343.080  0.500  0.358597  20.320746  37.499011  26.198902
  16346.112  16346.100  0.500  0.358904  20.317618  37.490418  26.184872
  16349.144  16349.150  0.500  0.359633  20.297942  37.456917  26.142392
  16352.201  16352.210  0.500  0.359835  20.284908  37.430155  26.118455
  16355.283  16355.290  0.500  0.360171  20.269494  37.406182  26.092938
  16358.401  16358.390  0.500  0.360049  20.255217  37.380489  26.078193
  16361.543  16361.510  0.500  0.360222  20.238642  37.352937  26.054486
  16364.687  16364.650  0.500  0.360511  20.221935  37.321882  26.025303
  16367.820  16367.800  0.500  0.360687  20.207377  37.294450  26.001589
  16370.990  16370.980  0.500  0.360415  20.154292  37.200567  25.943184
  16374.196  16374.170  0.500  0.359657  20.098312  37.095757  25.889713
  16377.427  16377.390  0.500  0.358945  20.152686  37.199605  25.980685
  16380.671  16380.620  0.500  0.358447  20.144034  37.181916  25.981255
  16383.881  16383.870  0.500  0.357766  20.128726  37.151072  25.977395
  16387.151  16387.150  0.500  0.357351  20.113305  37.122888  25.968456
  16390.434  16390.440  0.500  0.357041  20.095622  37.097212  25.958535
  16393.777  16393.750  0.500  0.357095  20.076366  37.062883  25.933131
  16397.110  16397.070  0.500  0.356942  20.055146  37.028067  25.912717
  16400.456  16400.420  0.500  0.356487  20.032576  36.984743  25.894185
  16403.804  16403.790  0.500  0.355994  20.001675  36.929929  25.868562
  16407.152  16407.170  0.500  0.355375  20.003465  36.936676  25.889317
  16410.597  16410.580  0.500  0.354695  19.992977  36.909689  25.888001
  16414.019  16414.000  0.500  0.354626  19.980223  36.890072  25.876012
  16417.491  16417.450  0.500  0.354784  19.958291  36.851999  25.845215
  16420.940  16420.910  0.500  0.354916  19.922513  36.784887  25.794756
  16424.390  16424.390  0.500  0.355181  19.925862  36.796729  25.796210
  16427.913  16427.890  0.500  0.355671  19.910039  36.771987  25.766236
  16431.449  16431.410  0.500  0.356155  19.945966  36.833266  25.796692
  16434.987  16434.950  0.500  0.356397  19.926578  36.801073  25.767908
  16438.502  16438.500  0.500  0.356404  19.900706  36.747557  25.730263
  16442.067  16442.080  0.500  0.356138  19.870194  36.701201  25.704644
  16445.692  16445.680  0.500  0.355252  19.857510  36.680191  25.712707
  16449.331  16449.290  0.500  0.354218  19.864040  36.690449  25.746501
  16452.912  16452.920  0.500  0.353380  19.850338  36.662695  25.748589
  16456.589  16456.580  0.500  0.353099  19.827382  36.629434  25.732470
  16460.269  16460.250  0.500  0.352745  19.788565  36.554398  25.688832
  16463.973  16463.940  0.500  0.352601  19.797177  36.572683  25.705376
  16467.703  16467.650  0.500  0.352522  19.779356  36.540119  25.684535
  16471.388  16471.380  0.500  0.352157  19.755957  36.498478  25.664623
  16475.097  16475.120  0.500  0.352066  19.735951  36.466120  25.644212
  16478.916  16478.890  0.500  0.351967  19.717811  36.435687  25.625329
  16482.676  16482.680  0.500  0.351809  19.703339  36.406779  25.609049
  16486.522  16486.480  0.500  0.351732  19.683634  36.368733  25.584266
  16490.322  16490.310  0.500  0.351461  19.665463  36.337298  25.569084
  16494.160  16494.150  0.500  0.351316  19.643775  36.299739  25.546357
  16498.047  16498.010  0.500  0.351067  19.627942  36.269953  25.531748
  16501.900  16501.890  0.500  0.350891  19.603719  36.228833  25.507301
  16505.814  16505.790  0.500  0.350795  19.582300  36.191166  25.483209
  16509.695  16509.710  0.500  0.350752  19.568360  36.162857  25.464378
  16513.685  16513.650  0.500  0.350729  19.551559  36.134424  25.444954
  16517.629  16517.610  0.500  0.350489  19.532939  36.102542  25.428595
  16521.634  16521.580  0.500  0.350143  19.510744  36.058825  25.406583
  16525.582  16525.580  0.500  0.349909  19.490284  36.024001  25.388003
  16529.604  16529.590  0.500  0.349585  19.472038  35.993352  25.374616
  16533.628  16533.630  0.500  0.349230  19.445636  35.941624  25.347132
  16537.725  16537.680  0.500  0.348965  19.429368  35.915065  25.335133
  16541.753  16541.750  0.500  0.348530  19.414122  35.886611  25.326063
  16545.830  16545.840  0.500  0.348305  19.371411  35.817061  25.282672
  16549.970  16549.950  0.500  0.347737  19.364316  35.799497  25.284622
  16554.148  16554.080  0.500  0.347422  19.349046  35.775831  25.275884
  16558.219  16558.230  0.500  0.347272  19.331499  35.746519  25.258964
  16562.413  16562.390  0.500  0.347056  19.305193  35.696122  25.228786
  16566.585  16566.580  0.500  0.346993  19.295502  35.675426  25.215751
  16570.819  16570.780  0.500  0.346778  19.269944  35.638040  25.194758
  16575.056  16575.010  0.500  0.346601  19.249810  35.597765  25.170739
  16579.246  16579.250  0.500  0.346289  19.226681  35.552209  25.146371
  16583.535  16583.510  0.500  0.346205  19.202371  35.518517  25.124632
  16587.814  16587.790  0.500  0.346077  19.184698  35.482713  25.102525
  16592.144  16592.090  0.500  0.345808  19.153658  35.428115  25.070646
  16596.416  16596.410  0.500  0.345623  19.143298  35.408613  25.061483
  16600.774  16600.750  0.500  0.345425  19.121231  35.372197  25.040656
  16605.147  16605.110  0.500  0.345107  19.096510  35.325760  25.015756
  16609.534  16609.490  0.500  0.344632  19.078640  35.295904  25.006474
  16613.923  16613.880  0.500  0.344313  19.057295  35.251364  24.982898
  16618.303  16618.300  0.500  0.344005  19.023363  35.193194  24.949348
  16622.770  16622.730  0.500  0.343717  19.012868  35.174085  24.942985
  16627.215  16627.180  0.500  0.343670  18.991285  35.135911  24.917084
  16631.674  16631.650  0.500  0.343381  18.970934  35.103038  24.900960
  16636.160  16636.140  0.500  0.343177  18.951399  35.062502  24.877281
  16640.673  16640.650  0.500  0.342871  18.927024  35.023351  24.857124
  16645.225  16645.180  0.500  0.342576  18.905244  34.983731  24.836309
  16649.779  16649.730  0.500  0.342208  18.881301  34.942710  24.816317
  16654.288  16654.300  0.500  0.341937  18.855781  34.898563  24.791692
  16658.920  16658.880  0.500  0.341654  18.837789  34.859369  24.770852
  16663.542  16663.490  0.500  0.341402  18.813558  34.818301  24.747919
  16668.155  16668.110  0.500  0.341197  18.783884  34.767068  24.716556
  16672.783  16672.760  0.500  0.341020  18.760934  34.729728  24.694388
  16677.450  16677.420  0.500  0.340770  18.736396  34.681848  24.666504
  16682.156  16682.100  0.500  0.340435  18.710380  34.633176  24.640145
  16686.817  16686.800  0.500  0.340331  18.683157  34.585317  24.608660
  16691.552  16691.520  0.500  0.339968  18.653226  34.533021  24.580371
  16696.291  16696.260  0.500  0.339699  18.620609  34.469626  24.541846
  16701.045  16701.010  0.500  0.339334  18.577295  34.392941  24.496195
  16705.813  16705.790  0.500  0.338980  18.514792  34.279951  24.424354
  16710.621  16710.590  0.500  0.338899  18.370385  34.019997  24.241088
  16715.420  16715.400  0.500  0.338774  16.917302  31.328482  22.326031
  16720.282  16720.230  0.500  0.338297  18.001198  33.333630  23.766319
  16725.148  16725.090  0.500  0.338208  18.608239  34.460731  24.572113
  16729.967  16729.960  0.500  0.337778  18.575788  34.395186  24.535934
  16734.887  16734.850  0.500  0.337498  18.534859  34.326608  24.493863
  16739.847  16739.760  0.500  0.337220  18.504285  34.270784  24.460825
  16744.736  16744.690  0.500  0.336823  18.473783  34.212783  24.429122
  16749.653  16749.630  0.500  0.336669  18.446364  34.168026  24.400933
  16754.622  16754.600  0.500  0.336180  18.414979  34.108987  24.370691
  16759.655  16759.590  0.500  0.335871  18.389254  34.059697  24.342989
  16764.630  16764.590  0.500  0.335759  18.360622  34.011660  24.311383
  16769.632  16769.620  0.500  0.335617  18.331131  33.963188  24.280176
  16774.712  16774.660  0.500  0.335136  18.304678  33.912714  24.255768
  16779.769  16779.720  0.500  0.335031  18.276152  33.864185  24.223584
  16784.806  16784.800  0.500  0.334620  18.249534  33.812761  24.196747
  16789.907  16789.900  0.500  0.334330  18.219864  33.755639  24.162884
  16795.048  16795.020  0.500  0.334233  18.189432  33.704045  24.128296
  16800.192  16800.160  0.500  0.333876  18.153083  33.642399  24.092761
  16805.340  16805.320  0.500  0.333467  17.878065  33.129589  23.735214
  16810.515  16810.500  0.500  0.333343  18.105152  33.556572  24.044101
  16815.731  16815.690  0.500  0.332986  18.066629  33.483479  24.000296
  16820.975  16820.910  0.500  0.332806  18.015882  33.390341  23.937838
  16826.185  16826.140  0.500  0.332405  17.932480  33.236884  23.837382
  16831.423  16831.390  0.500  0.332116  17.657204  32.727315  23.478713
  16836.714  16836.660  0.500  0.331684  15.168495  28.117334  20.180212
  16841.996  16841.950  0.500  0.331527  18.065292  33.488123  24.038678
  16847.269  16847.260  0.500  0.331338  18.047321  33.459766  24.022846
  16852.645  16852.590  0.500  0.330914  17.993621  33.360872  23.962008
  16857.975  16857.940  0.500  0.330668  17.958697  33.296179  23.921431
  16863.382  16863.310  0.500  0.330278  17.804965  33.013470  23.727576
  16868.731  16868.690  0.500  0.330103  17.889643  33.172668  23.846165
  16874.195  16874.100  0.500  0.329798  17.839333  33.078738  23.785903
  16879.576  16879.520  0.500  0.329579  17.845516  33.096811  23.804092
  16885.048  16884.970  0.500  0.329307  17.807651  33.025303  23.759137
  16890.510  16890.430  0.500  0.328905  17.782686  32.977719  23.734444
  16895.989  16895.910  0.500  0.328678  17.750978  32.922131  23.699802
  16901.509  16901.410  0.500  0.328414  17.717557  32.859719  23.661124
  16907.020  16906.930  0.500  0.328229  17.694623  32.817941  23.635419
  16912.522  16912.470  0.500  0.327980  17.630461  32.704291  23.559435
  16918.103  16918.020  0.500  0.327523  17.614102  32.671603  23.546643
  16923.700  16923.600  0.500  0.327267  17.431716  32.340222  23.313772
  16929.301  16929.200  0.500  0.327104  17.568798  32.595613  23.501732
  16934.906  16934.810  0.500  0.326625  17.511214  32.490597  23.437219
  16940.489  16940.450  0.500  0.326286  17.441231  32.362544  23.352777
  16946.151  16946.100  0.500  0.326070  17.178409  31.874906  23.005856
  16951.830  16951.770  0.500  0.325620  14.944456  27.734406  20.026450
  16957.538  16957.460  0.500  0.325358  17.549306  32.563319  23.519476
