# XDI/1.0 BlueSky/1.10.0 BMM/2023-1.0-py310-tiled
# Beamline.name: BMM (06BM) -- Beamline for Materials Measurement (NIST)
# Beamline.xray_source: NSLS-II three-pole wiggler
# Beamline.collimation: paraboloid mirror, 5 nm Rh on 30 nm Pt
# Beamline.focusing: not in use
# Beamline.harmonic_rejection: flat mirror, Pt stripe, pitch = 7.0 mrad relative to beam
# Beamline.software: Bluesky 1.10.0, Ophyd 1.7.0, DataBroker 2.0.0b13, Python 3.10.8, 2023-1.0-py310-tiled
# Detector.I0: 10 cm N2
# Detector.I1: 25 cm N2
# Detector.I2: 25 cm N2
# Element.symbol: Zr
# Element.edge: K
# Element.reference: Zr
# Element.reference_material: Zr foil
# Facility.name: NSLS-II
# Facility.energy: 3.0
# Facility.current: 399.9
# Facility.mode: top-off
# Facility.GUP: 301027
# Facility.SAF: 310583
# Facility.cycle: 2023-2
# Mono.name: Si(111)
# Mono.d_spacing: 3.1351860
# Mono.encoder_resolution: 0.0000050 deg/ct
# Mono.angle_offset: 16.0754326 deg
# Mono.scan_mode: pseudo channel cut
# Mono.scan_type: step
# Mono.direction: forward in energy
# Sample.name: Zr foil
# Sample.prep: reference foil
# Sample.x: 109.138 mm
# Sample.y: 153.150 mm
# Sample.SDD_position: 205.000 mm
# Scan.experimenters: Bruce Ravel
# Scan.edge_energy: 17997.6
# Scan.start_time: 2023-05-28T22:18:31
# Scan.end_time: 2023-05-28T22:26:07
# Scan.transient_id: 79064
# Scan.uid: 071aacf5-2d6b-4c75-bae0-a38b751e8111
# Scan.plot_hint: ln(It/Ir)  --  ln($6/$7)
# Column.1: energy eV
# Column.2: requested_energy eV
# Column.3: measurement_time seconds
# Column.4: xmu 
# Column.5: I0 nA
# Column.6: It nA
# Column.7: Ir nA
# ///////////
# standard reference foil
# -----------
# energy  requested_energy  measurement_time  xmu  I0  It  Ir
  17797.719  17797.600  0.500  0.295125  13.475238  25.165145  18.733899
  17807.561  17807.600  0.500  0.295050  13.454296  25.131477  18.710237
  17817.553  17817.600  0.500  0.294704  13.432332  25.091585  18.687006
  17827.585  17827.600  0.500  0.294226  13.406174  25.042253  18.659190
  17837.586  17837.600  0.500  0.293941  13.380583  24.992177  18.627185
  17847.556  17847.600  0.500  0.293428  13.353210  24.947933  18.603743
  17857.607  17857.600  0.500  0.293279  13.324479  24.894140  18.566406
  17867.558  17867.600  0.500  0.293053  13.285685  24.821842  18.516654
  17877.576  17877.600  0.500  0.292836  13.248404  24.752756  18.469131
  17887.619  17887.600  0.500  0.292884  13.214755  24.696948  18.426599
  17897.590  17897.600  0.500  0.292786  13.189158  24.652327  18.395122
  17907.627  17907.600  0.500  0.292642  13.163350  24.601080  18.359530
  17917.606  17917.600  0.500  0.292842  13.123019  24.529468  18.302421
  17927.596  17927.600  0.500  0.293250  13.097218  24.477541  18.256220
  17937.626  17937.600  0.500  0.294070  13.080535  24.452319  18.222458
  17947.624  17947.600  0.500  0.295429  13.039522  24.374516  18.139815
  17957.591  17957.600  0.500  0.297624  13.008597  24.326671  18.064512
  17967.626  17967.600  0.500  0.301025  12.926252  24.168612  17.886206
  17969.552  17969.600  0.500  0.301979  12.912813  24.148483  17.854260
  17971.535  17971.600  0.500  0.303074  12.971315  24.253135  17.912026
  17973.561  17973.600  0.500  0.304476  12.968990  24.250972  17.885321
  17975.503  17975.600  0.500  0.306301  12.952867  24.221980  17.831379
  17977.516  17977.600  0.500  0.307927  12.951519  24.218987  17.800211
  17979.487  17979.600  0.500  0.310123  12.943462  24.204817  17.750774
  17981.486  17981.600  0.500  0.312813  12.930586  24.178266  17.683668
  17983.515  17983.600  0.500  0.316217  12.935205  24.190518  17.632505
  17985.544  17985.600  0.500  0.320598  12.921535  24.160807  17.533863
  17987.559  17987.600  0.500  0.326588  12.925504  24.169922  17.435727
  17987.800  17987.900  0.500  0.327560  12.914214  24.150102  17.404492
  17988.113  17988.200  0.500  0.328529  12.912113  24.148264  17.386322
  17988.425  17988.500  0.500  0.329939  12.909639  24.145948  17.360154
  17988.737  17988.800  0.500  0.331043  12.904795  24.134946  17.333104
  17989.049  17989.100  0.500  0.332361  12.907175  24.138962  17.313151
  17989.348  17989.400  0.500  0.333724  12.907975  24.142222  17.291896
  17989.632  17989.700  0.500  0.335022  12.909677  24.142386  17.269589
  17989.930  17990.000  0.500  0.336379  12.908806  24.140355  17.244724
  17990.214  17990.300  0.500  0.337571  12.906612  24.135868  17.220970
  17990.540  17990.600  0.500  0.339713  12.900293  24.127071  17.177854
  17990.852  17990.900  0.500  0.341433  12.898223  24.123032  17.145474
  17991.179  17991.200  0.500  0.343452  12.898072  24.123428  17.111167
  17991.463  17991.500  0.500  0.345489  12.900707  24.127680  17.079366
  17991.761  17991.800  0.500  0.347568  12.899171  24.123851  17.041181
  17992.045  17992.100  0.500  0.349945  12.897834  24.121075  16.998773
  17992.343  17992.400  0.500  0.352312  12.897111  24.123091  16.959991
  17992.627  17992.700  0.500  0.354955  12.894863  24.118457  16.911983
  17992.954  17993.000  0.500  0.358123  12.898006  24.120550  16.859953
  17993.281  17993.300  0.500  0.361862  12.889306  24.105590  16.786622
  17993.607  17993.600  0.500  0.365786  12.887106  24.098442  16.715907
  17993.891  17993.900  0.500  0.369614  12.884604  24.100625  16.653563
  17994.176  17994.200  0.500  0.373824  12.892348  24.111178  16.590860
  17994.474  17994.500  0.500  0.378485  12.882141  24.093631  16.501681
  17994.772  17994.800  0.500  0.383655  12.882924  24.090804  16.414668
  17995.070  17995.100  0.500  0.389779  12.892466  24.115095  16.330893
  17995.355  17995.400  0.500  0.397167  12.883604  24.101217  16.201361
  17995.667  17995.700  0.500  0.405278  12.881037  24.096076  16.067061
  17995.980  17996.000  0.500  0.414299  12.880372  24.090356  15.918981
  17996.264  17996.300  0.500  0.424016  12.931341  24.188538  15.829300
  17996.562  17996.600  0.500  0.435135  12.920283  24.165374  15.639282
  17996.860  17996.900  0.500  0.448377  12.925578  24.173176  15.438528
  17997.187  17997.200  0.500  0.463955  12.925992  24.180104  15.204249
  17997.486  17997.500  0.500  0.481113  12.927916  24.174812  14.942338
  17997.798  17997.800  0.500  0.500583  12.927863  24.183601  14.659553
  17998.097  17998.100  0.500  0.521096  12.925353  24.173652  14.355995
  17998.381  17998.400  0.500  0.542208  12.935233  24.195028  14.068511
  17998.679  17998.700  0.500  0.565283  12.924029  24.172039  13.734541
  17998.949  17999.000  0.500  0.589545  12.918800  24.166327  13.402146
  17999.248  17999.300  0.500  0.614493  12.917626  24.167280  13.072449
  17999.560  17999.600  0.500  0.641403  12.915779  24.159809  12.721426
  17999.859  17999.900  0.500  0.665951  12.915371  24.161607  12.413860
  18000.186  18000.200  0.500  0.692623  12.915327  24.155728  12.084197
  18000.470  18000.500  0.500  0.714399  12.915008  24.161187  11.826562
  18000.754  18000.800  0.500  0.733223  12.916763  24.160686  11.605783
  18001.053  18001.100  0.500  0.749958  12.910647  24.156843  11.411364
  18001.337  18001.400  0.500  0.766948  12.913228  24.159796  11.220499
  18001.650  18001.700  0.500  0.780118  12.906653  24.149466  11.068952
  18002.005  18002.000  0.500  0.791622  12.913073  24.159109  10.946720
  18002.304  18002.300  0.500  0.800351  12.906888  24.148662  10.846887
  18002.588  18002.600  0.500  0.807635  12.906721  24.142678  10.765499
  18002.887  18002.900  0.500  0.814483  12.903245  24.141128  10.691343
  18003.157  18003.200  0.500  0.820537  12.913308  24.160248  10.635221
  18003.484  18003.500  0.500  0.827713  12.904904  24.143764  10.551972
  18003.768  18003.800  0.500  0.835424  12.912097  24.153863  10.475308
  18004.081  18004.100  0.500  0.844069  12.907398  24.145965  10.381740
  18004.394  18004.400  0.500  0.854220  12.895921  24.125807  10.268307
  18004.692  18004.700  0.500  0.865896  12.889924  24.116290  10.145104
  18004.977  18005.000  0.500  0.877776  12.890617  24.116015  10.025187
  18005.275  18005.300  0.500  0.891796  12.890172  24.118935  9.886806
  18005.588  18005.600  0.500  0.906659  12.895300  24.127168  9.744270
  18005.901  18005.900  0.500  0.923309  12.891660  24.117046  9.579347
  18006.186  18006.200  0.500  0.941679  12.892293  24.118785  9.405663
  18006.499  18006.500  0.500  0.962045  12.894579  24.127084  9.219215
  18006.812  18006.800  0.500  0.982893  12.893030  24.126096  9.028634
  18007.096  18007.100  0.500  1.004175  12.885845  24.107130  8.831566
  18007.395  18007.400  0.500  1.026360  12.882501  24.100807  8.635529
  18007.679  18007.700  0.500  1.049717  12.889784  24.118749  8.442452
  18007.992  18008.000  0.500  1.075907  12.874262  24.085980  8.213035
  18008.305  18008.300  0.500  1.101964  12.874907  24.093570  8.004319
  18008.618  18008.600  0.500  1.129092  12.876972  24.092756  7.789832
  18008.903  18008.900  0.500  1.154904  12.879207  24.104099  7.594905
  18009.201  18009.200  0.500  1.181383  12.885030  24.113911  7.399451
  18009.500  18009.500  0.500  1.208056  12.871116  24.087179  7.196708
  18009.799  18009.800  0.500  1.234378  12.870651  24.086990  7.009695
  18010.098  18010.100  0.500  1.261575  12.876827  24.096978  6.824448
  18010.411  18010.400  0.500  1.288796  12.873396  24.089615  6.639155
  18010.724  18010.700  0.500  1.315489  12.867894  24.083275  6.462579
  18011.023  18011.000  0.500  1.339624  12.863432  24.078221  6.307149
  18011.322  18011.300  0.500  1.362445  12.864078  24.074978  6.164016
  18011.606  18011.600  0.500  1.382244  12.865883  24.076110  6.043454
  18011.891  18011.900  0.500  1.401984  12.866404  24.080880  5.926500
  18012.204  18012.200  0.500  1.420578  12.865819  24.076796  5.816336
  18012.503  18012.500  0.500  1.436252  12.872176  24.090306  5.729097
  18012.844  18012.800  0.500  1.451184  12.859605  24.066490  5.638604
  18013.129  18013.100  0.500  1.462313  12.860798  24.071926  5.577458
  18013.414  18013.400  0.500  1.471386  12.859503  24.068270  5.526245
  18013.684  18013.700  0.500  1.478627  12.861949  24.072305  5.487294
  18013.997  18014.000  0.500  1.483778  12.861114  24.069779  5.458527
  18014.311  18014.300  0.500  1.487315  12.863792  24.071039  5.439537
  18014.624  18014.600  0.500  1.488732  12.858267  24.064862  5.430446
  18014.937  18014.900  0.500  1.488104  12.859732  24.066484  5.434220
  18015.236  18015.200  0.500  1.486456  12.860298  24.071213  5.444254
  18015.506  18015.500  0.500  1.483272  12.852090  24.053708  5.457643
  18015.805  18015.800  0.500  1.478830  12.843859  24.035559  5.477805
  18016.119  18016.100  0.500  1.473884  12.848272  24.047558  5.507716
  18016.432  18016.400  0.500  1.468512  12.843234  24.039271  5.535473
  18016.702  18016.700  0.500  1.463194  12.840360  24.034225  5.563822
  18017.030  18017.000  0.500  1.456982  12.843887  24.036568  5.599037
  18017.315  18017.300  0.500  1.451436  12.836117  24.021991  5.626762
  18017.600  18017.600  0.500  1.446322  12.846101  24.039751  5.659789
  18017.913  18017.900  0.500  1.441690  12.845973  24.043637  5.686987
  18018.198  18018.200  0.500  1.437422  12.843855  24.033227  5.708839
  18018.497  18018.500  0.500  1.433455  12.832035  24.012506  5.726588
  18018.824  18018.800  0.500  1.430158  12.834410  24.021698  5.747698
  18019.123  18019.100  0.500  1.427641  12.833816  24.019050  5.761546
  18019.394  18019.400  0.500  1.425469  12.832706  24.017885  5.773795
  18019.693  18019.700  0.500  1.423775  12.830713  24.011923  5.782149
  18019.992  18020.000  0.500  1.422754  12.831565  24.014456  5.788669
  18020.292  18020.300  0.500  1.421751  12.831540  24.016449  5.794954
  18020.591  18020.600  0.500  1.421102  12.832059  24.013868  5.798093
  18020.918  18020.900  0.500  1.420718  12.825115  24.002102  5.797483
  18021.203  18021.200  0.500  1.420620  12.834102  24.019922  5.802354
  18021.474  18021.500  0.500  1.420716  12.823676  24.003215  5.797763
  18021.773  18021.800  0.500  1.420762  12.819001  23.994250  5.795328
  18022.058  18022.100  0.500  1.421124  12.824519  24.001198  5.794910
  18022.400  18022.400  0.500  1.421527  12.820676  24.001273  5.792592
  18022.600  18022.600  0.500  1.421495  12.833996  24.018031  5.796820
  18023.597  18023.590  0.500  1.424741  12.816430  23.988469  5.770922
  18024.609  18024.590  0.500  1.431070  12.809441  23.974248  5.731114
  18025.578  18025.610  0.500  1.441489  12.807778  23.973340  5.671498
  18026.690  18026.660  0.500  1.458156  12.807128  23.969842  5.576941
  18027.688  18027.720  0.500  1.475715  12.801124  23.961368  5.477935
  18028.828  18028.800  0.500  1.494901  12.795794  23.949517  5.371177
  18029.884  18029.900  0.500  1.508931  12.787586  23.934831  5.293100
  18031.039  18031.020  0.500  1.516369  12.788454  23.936229  5.254183
  18032.180  18032.160  0.500  1.514568  12.782074  23.929679  5.262212
  18033.321  18033.310  0.500  1.504180  12.791416  23.942846  5.320087
  18034.562  18034.490  0.500  1.486211  12.775753  23.912285  5.409635
  18035.718  18035.680  0.500  1.465753  12.776127  23.909783  5.520864
  18036.903  18036.900  0.500  1.445219  12.780610  23.920891  5.638020
  18038.187  18038.130  0.500  1.427468  12.764882  23.892123  5.732094
  18039.386  18039.380  0.500  1.416418  12.751334  23.871747  5.790841
  18040.657  18040.650  0.500  1.410841  12.727076  23.822931  5.811320
  18041.985  18041.940  0.500  1.408953  12.691414  23.758377  5.806525
  18043.241  18043.250  0.500  1.408429  12.693281  23.756775  5.809176
  18044.584  18044.580  0.500  1.407202  12.718886  23.808583  5.828992
  18045.927  18045.930  0.500  1.404110  12.740840  23.846789  5.856429
  18047.284  18047.300  0.500  1.400192  12.745494  23.862026  5.883174
  18048.684  18048.680  0.500  1.395773  12.744093  23.853284  5.907062
  18050.085  18050.090  0.500  1.392937  12.734284  23.839013  5.920296
  18051.529  18051.510  0.500  1.392845  12.732298  23.834138  5.919631
  18052.958  18052.950  0.500  1.396948  12.726339  23.824791  5.893078
  18054.431  18054.410  0.500  1.405234  12.723636  23.820405  5.843376
  18055.932  18055.890  0.500  1.416682  12.723805  23.816441  5.775900
  18057.420  18057.390  0.500  1.429928  12.712379  23.791762  5.693992
  18058.936  18058.910  0.500  1.443140  12.705056  23.786166  5.617934
  18060.482  18060.450  0.500  1.453354  12.697011  23.770993  5.557300
  18062.013  18062.010  0.500  1.458031  12.697260  23.768789  5.530854
  18063.602  18063.580  0.500  1.456598  12.690439  23.757965  5.536265
  18065.176  18065.180  0.500  1.448802  12.683932  23.747103  5.577043
  18066.794  18066.790  0.500  1.436056  12.682670  23.742562  5.647499
  18068.441  18068.430  0.500  1.421843  12.673377  23.726460  5.724456
  18070.103  18070.080  0.500  1.410150  12.673379  23.725996  5.791674
  18071.764  18071.750  0.500  1.402210  12.664131  23.709089  5.833681
  18073.498  18073.440  0.500  1.397935  12.658142  23.700627  5.856586
  18075.161  18075.150  0.500  1.395656  12.651956  23.691117  5.867592
  18076.909  18076.880  0.500  1.393327  12.652191  23.687475  5.880369
  18078.658  18078.630  0.500  1.391158  12.650323  23.686102  5.892798
  18080.393  18080.390  0.500  1.388987  12.638528  23.660272  5.899162
  18082.172  18082.180  0.500  1.387898  12.622568  23.638735  5.900216
  18083.951  18083.980  0.500  1.388762  12.616772  23.626043  5.891956
  18085.802  18085.810  0.500  1.391923  12.621287  23.629657  5.874255
  18087.639  18087.650  0.500  1.397455  12.615106  23.620609  5.839613
  18089.533  18089.510  0.500  1.404150  12.572805  23.537482  5.780231
  18091.414  18091.390  0.500  1.411015  12.531061  23.463198  5.722569
  18093.338  18093.290  0.500  1.416098  12.565482  23.527000  5.709041
  18095.263  18095.210  0.500  1.419230  12.595860  23.585910  5.705438
  18097.202  18097.150  0.500  1.419631  12.586787  23.568656  5.698975
  18099.142  18099.110  0.500  1.416228  12.581768  23.561260  5.716608
  18101.097  18101.080  0.500  1.409202  12.580395  23.561799  5.757048
  18103.095  18103.080  0.500  1.399572  12.567755  23.536967  5.806630
  18105.094  18105.090  0.500  1.388718  12.559078  23.518988  5.865515
  18107.093  18107.120  0.500  1.378554  12.535450  23.478328  5.915191
  18109.179  18109.180  0.500  1.370336  12.533933  23.471477  5.962260
  18111.265  18111.250  0.500  1.365692  12.537265  23.480740  5.992382
  18113.381  18113.340  0.500  1.364892  12.539880  23.480608  5.997143
  18115.482  18115.450  0.500  1.367146  12.521441  23.450891  5.976067
  18117.585  18117.580  0.500  1.370709  12.513725  23.433705  5.950447
  18119.745  18119.720  0.500  1.374890  12.481887  23.376491  5.911152
  18121.891  18121.890  0.500  1.378982  12.412449  23.244197  5.853695
  18124.110  18124.080  0.500  1.383122  12.456373  23.335512  5.852415
  18126.272  18126.280  0.500  1.386230  12.500629  23.411854  5.853341
  18128.521  18128.500  0.500  1.388548  12.490859  23.396005  5.835834
  18130.771  18130.750  0.500  1.390249  12.483824  23.379944  5.821917
  18133.064  18133.010  0.500  1.391684  12.470778  23.360409  5.808709
  18135.329  18135.290  0.500  1.392609  12.447945  23.312608  5.791467
  18137.623  18137.590  0.500  1.392767  12.448004  23.313257  5.790712
  18139.962  18139.910  0.500  1.391362  12.461841  23.342888  5.806225
  18142.286  18142.250  0.500  1.387696  12.462173  23.344193  5.827877
  18144.568  18144.600  0.500  1.382007  12.450822  23.323247  5.855863
  18146.966  18146.980  0.500  1.374122  12.435507  23.293691  5.894738
  18149.422  18149.370  0.500  1.366233  12.424849  23.272805  5.936100
  18151.822  18151.790  0.500  1.358203  12.435466  23.289735  5.988314
  18154.236  18154.220  0.500  1.350851  12.453481  23.324443  6.041489
  18156.752  18156.670  0.500  1.345292  12.459982  23.340396  6.079322
  18159.168  18159.150  0.500  1.341150  12.443888  23.310225  6.096664
  18161.656  18161.640  0.500  1.339670  12.437019  23.299829  6.102971
  18164.175  18164.150  0.500  1.339312  12.438290  23.301866  6.105692
  18166.650  18166.670  0.500  1.340053  12.429889  23.289916  6.098038
  18169.242  18169.220  0.500  1.341943  12.415070  23.261798  6.079181
  18171.821  18171.790  0.500  1.345132  12.414142  23.256347  6.058403
  18174.443  18174.370  0.500  1.350057  12.400689  23.229650  6.021715
  18177.009  18176.980  0.500  1.355879  12.391936  23.216918  5.983481
  18179.647  18179.600  0.500  1.361013  12.378598  23.190150  5.945976
  18182.272  18182.250  0.500  1.365561  12.374858  23.184069  5.917443
  18184.927  18184.910  0.500  1.368787  12.363903  23.167120  5.894071
  18187.553  18187.590  0.500  1.371164  12.351542  23.142947  5.873942
  18190.340  18190.290  0.500  1.371655  12.354112  23.145586  5.871726
  18193.040  18193.010  0.500  1.369208  12.347403  23.134643  5.883333
  18195.800  18195.750  0.500  1.364662  12.336871  23.114834  5.905077
  18198.546  18198.500  0.500  1.359133  12.328805  23.101087  5.934285
  18201.307  18201.280  0.500  1.353253  12.315849  23.076673  5.962975
  18204.083  18204.070  0.500  1.348195  12.313466  23.070363  5.991572
  18206.875  18206.890  0.500  1.343395  12.315691  23.077317  6.022212
  18209.770  18209.720  0.500  1.339133  12.290149  23.029483  6.035399
  18212.593  18212.570  0.500  1.334972  12.284749  23.017163  6.057326
  18215.504  18215.450  0.500  1.330953  12.278038  23.014480  6.081006
  18218.401  18218.340  0.500  1.327033  12.250465  22.959045  6.090187
  18221.270  18221.250  0.500  1.323802  12.182631  22.830082  6.075577
  18224.169  18224.170  0.500  1.322530  12.249225  22.954895  6.116569
  18227.157  18227.120  0.500  1.323686  12.242123  22.946054  6.107146
  18230.087  18230.090  0.500  1.326360  12.242386  22.942924  6.090011
  18233.077  18233.070  0.500  1.330348  12.227461  22.911340  6.057418
  18236.097  18236.080  0.500  1.335462  12.207449  22.884666  6.019508
  18239.103  18239.100  0.500  1.341261  12.205641  22.877576  5.982844
  18242.154  18242.150  0.500  1.347028  12.195262  22.858580  5.943502
  18245.206  18245.210  0.500  1.351993  12.185032  22.843634  5.910198
  18248.317  18248.290  0.500  1.355589  12.173927  22.817358  5.882212
  18251.415  18251.390  0.500  1.356375  12.155475  22.788536  5.870163
  18254.558  18254.510  0.500  1.354310  12.151039  22.780260  5.880165
  18257.687  18257.650  0.500  1.349642  12.148639  22.777628  5.906991
  18260.773  18260.800  0.500  1.343983  12.138241  22.753284  5.934167
  18264.007  18263.980  0.500  1.338624  12.131791  22.742110  5.963120
  18267.184  18267.170  0.500  1.333995  12.117927  22.717573  5.984328
  18270.405  18270.390  0.500  1.330420  12.105723  22.697079  6.000343
  18273.657  18273.620  0.500  1.327218  12.093452  22.671301  6.012747
  18276.881  18276.870  0.500  1.324985  12.086448  22.662778  6.023924
  18280.135  18280.150  0.500  1.323062  12.036371  22.566263  6.009818
  18283.435  18283.440  0.500  1.320673  11.665950  21.871373  5.838684
  18286.794  18286.750  0.500  1.317661  11.803233  22.131149  5.925854
  18290.111  18290.070  0.500  1.315202  12.021043  22.537936  6.049636
  18293.458  18293.420  0.500  1.314200  12.028227  22.553715  6.059941
  18296.791  18296.790  0.500  1.313938  12.022052  22.544091  6.058941
  18300.156  18300.170  0.500  1.314459  12.015372  22.530521  6.052138
  18303.609  18303.580  0.500  1.315582  12.007739  22.515368  6.041281
  18306.991  18307.000  0.500  1.317253  11.999298  22.498228  6.026605
  18310.491  18310.450  0.500  1.319535  11.994067  22.493052  6.011485
  18313.919  18313.910  0.500  1.322114  11.966992  22.441330  5.982214
  18317.422  18317.390  0.500  1.325047  11.963206  22.432931  5.962462
  18320.942  18320.890  0.500  1.327331  11.954799  22.416135  5.944401
  18324.492  18324.410  0.500  1.329192  11.945697  22.403310  5.929954
  18328.013  18327.950  0.500  1.328758  11.938008  22.385474  5.927808
  18331.522  18331.500  0.500  1.327075  11.928275  22.369477  5.933547
  18335.076  18335.080  0.500  1.323533  11.912289  22.341311  5.947107
  18338.691  18338.680  0.500  1.318965  11.899098  22.317285  5.967908
  18342.366  18342.290  0.500  1.314820  11.876160  22.276424  5.981727
  18345.953  18345.920  0.500  1.310963  11.817454  22.165137  5.974843
  18349.587  18349.580  0.500  1.308476  11.855395  22.239815  6.009902
  18353.281  18353.250  0.500  1.306006  11.863753  22.257720  6.029615
  18356.992  18356.940  0.500  1.303362  11.849495  22.227357  6.037327
  18360.689  18360.650  0.500  1.301468  11.843567  22.214998  6.045411
  18364.447  18364.380  0.500  1.300081  11.825942  22.184870  6.045591
  18368.147  18368.120  0.500  1.298973  11.808920  22.151652  6.043235
  18371.878  18371.890  0.500  1.298228  11.804806  22.145315  6.046008
  18375.715  18375.680  0.500  1.298482  11.800429  22.137018  6.042208
  18379.538  18379.480  0.500  1.299293  11.783919  22.110250  6.030009
  18383.304  18383.310  0.500  1.300370  11.761570  22.067622  6.011903
  18387.130  18387.150  0.500  1.301558  11.760336  22.060681  6.002875
  18391.003  18391.010  0.500  1.302555  11.744550  22.037456  5.990580
  18394.981  18394.890  0.500  1.303154  11.736437  22.021597  5.982687
  18398.828  18398.790  0.500  1.303208  11.725504  22.000455  5.976620
  18402.735  18402.710  0.500  1.303253  11.713638  21.982157  5.971381
  18406.629  18406.650  0.500  1.302606  11.700599  21.953498  5.967455
  18410.644  18410.610  0.500  1.302348  11.687043  21.932168  5.963194
  18414.631  18414.580  0.500  1.301447  11.677666  21.908827  5.962217
  18418.604  18418.580  0.500  1.300100  11.662060  21.887049  5.964322
  18422.594  18422.590  0.500  1.297751  11.645548  21.855730  5.969795
  18426.676  18426.630  0.500  1.295656  11.634859  21.838791  5.977679
  18430.714  18430.680  0.500  1.293161  11.632511  21.832958  5.991009
  18434.829  18434.750  0.500  1.290678  11.617205  21.800905  5.997086
  18438.827  18438.840  0.500  1.288385  11.601022  21.776300  6.004071
  18442.960  18442.950  0.500  1.286957  11.595062  21.759526  6.008018
  18447.155  18447.080  0.500  1.285436  11.583287  21.736007  6.010661
  18451.307  18451.230  0.500  1.284459  11.572390  21.721453  6.012507
  18455.416  18455.390  0.500  1.283493  11.555926  21.688483  6.009180
  18459.617  18459.580  0.500  1.282689  11.546456  21.667094  6.008082
  18463.789  18463.780  0.500  1.282781  11.534350  21.652491  6.003479
  18468.084  18468.010  0.500  1.282843  11.524413  21.632614  5.997601
  18472.260  18472.250  0.500  1.282959  11.509491  21.606398  5.989637
  18476.529  18476.510  0.500  1.283300  11.489922  21.567355  5.976771
  18480.844  18480.790  0.500  1.283229  11.411220  21.423668  5.937376
  18485.146  18485.090  0.500  1.282424  11.464109  21.522730  5.969634
  18489.466  18489.410  0.500  1.281576  11.457784  21.508182  5.970662
  18493.757  18493.750  0.500  1.280850  11.440159  21.478311  5.966700
  18498.140  18498.110  0.500  1.280157  11.424557  21.451127  5.963278
  18502.556  18502.490  0.500  1.279406  11.418398  21.441120  5.964971
  18506.913  18506.880  0.500  1.278631  11.405612  21.416862  5.962844
  18511.318  18511.300  0.500  1.277637  11.394365  21.391434  5.961685
  18515.785  18515.730  0.500  1.276611  11.371144  21.352422  5.956923
  18520.224  18520.180  0.500  1.275015  11.354953  21.328408  5.959730
  18524.726  18524.650  0.500  1.273245  11.348830  21.310882  5.965380
  18529.169  18529.140  0.500  1.271211  11.330887  21.279821  5.968813
  18533.705  18533.650  0.500  1.269337  11.320336  21.258531  5.974028
  18538.274  18538.180  0.500  1.267551  11.309978  21.240851  5.979727
  18542.799  18542.730  0.500  1.266436  11.296483  21.217091  5.979706
  18547.372  18547.300  0.500  1.265032  11.281746  21.188434  5.980018
  18551.902  18551.880  0.500  1.264088  11.271495  21.165654  5.979229
  18556.540  18556.490  0.500  1.263137  11.255782  21.138393  5.977210
  18561.210  18561.110  0.500  1.263128  11.242763  21.110761  5.969448
  18565.837  18565.760  0.500  1.262920  11.233187  21.099738  5.967578
  18570.467  18570.420  0.500  1.262500  11.214822  21.063813  5.959915
  18575.175  18575.100  0.500  1.262174  11.201019  21.041586  5.955567
  18579.900  18579.800  0.500  1.261188  11.188732  21.019263  5.955123
  18584.628  18584.520  0.500  1.260487  11.173409  20.991546  5.951440
  18589.358  18589.260  0.500  1.259281  11.164766  20.973384  5.953461
  18594.091  18594.010  0.500  1.258108  11.145240  20.936018  5.949835
  18598.902  18598.790  0.500  1.257157  11.133352  20.919161  5.950698
  18603.791  18603.590  0.500  1.256201  11.117627  20.886778  5.947169
  18608.349  18608.400  0.500  1.255081  11.101817  20.861470  5.946621
  18613.197  18613.230  0.500  1.254016  11.090905  20.835399  5.945514
  18618.049  18618.090  0.500  1.252843  11.073793  20.806137  5.944132
  18622.948  18622.960  0.500  1.251693  11.054486  20.771908  5.941184
  18627.805  18627.850  0.500  1.250600  11.036238  20.740872  5.938795
  18632.740  18632.760  0.500  1.248934  11.031488  20.728882  5.945257
  18637.677  18637.690  0.500  1.247384  11.017945  20.704391  5.947448
  18642.618  18642.630  0.500  1.246229  11.003005  20.677770  5.946664
  18647.622  18647.600  0.500  1.244956  10.982021  20.639862  5.943325
  18652.598  18652.590  0.500  1.243651  10.971155  20.613226  5.943406
  18657.592  18657.590  0.500  1.242678  10.957335  20.591318  5.942865
  18662.604  18662.620  0.500  1.241855  10.942287  20.561415  5.939121
  18667.711  18667.660  0.500  1.240948  10.931342  20.540818  5.938557
  18672.729  18672.720  0.500  1.240154  10.914074  20.511602  5.934819
  18677.810  18677.800  0.500  1.239337  10.899647  20.485103  5.931995
  18682.910  18682.900  0.500  1.238405  10.887389  20.466523  5.932142
  18688.043  18688.020  0.500  1.237598  10.868558  20.432940  5.927187
  18693.179  18693.160  0.500  1.236881  10.852843  20.401867  5.922420
  18698.333  18698.320  0.500  1.235878  10.839029  20.379238  5.921792
  18703.552  18703.500  0.500  1.234738  10.829459  20.356755  5.922005
  18708.711  18708.690  0.500  1.233564  10.812749  20.326816  5.920243
  18713.966  18713.910  0.500  1.232438  10.793102  20.293296  5.917135
  18719.163  18719.140  0.500  1.231173  10.781703  20.269292  5.917618
  18724.408  18724.390  0.500  1.230180  10.762123  20.237252  5.914131
  18729.734  18729.660  0.500  1.228912  10.747714  20.204554  5.912068
  18735.001  18734.950  0.500  1.227753  10.732683  20.180175  5.911787
  18740.286  18740.260  0.500  1.226367  10.714742  20.146864  5.910211
  18745.620  18745.590  0.500  1.225215  10.698934  20.119863  5.909093
  18750.958  18750.940  0.500  1.223955  10.689699  20.099214  5.910471
  18756.330  18756.310  0.500  1.222871  10.669585  20.063593  5.906396
  18761.735  18761.690  0.500  1.221517  10.681550  20.085049  5.920725
  18767.128  18767.100  0.500  1.220424  10.668810  20.066479  5.921717
  18772.525  18772.520  0.500  1.219274  10.656888  20.039785  5.920647
  18777.986  18777.970  0.500  1.218425  10.642611  20.017063  5.918958
  18783.435  18783.430  0.500  1.217648  10.623939  19.984100  5.913804
  18788.980  18788.910  0.500  1.216312  10.608995  19.955460  5.913220
  18794.467  18794.410  0.500  1.215568  10.592903  19.926890  5.909148
  18799.941  18799.930  0.500  1.214651  10.581835  19.904986  5.908070
  18805.449  18805.470  0.500  1.213329  10.564822  19.874047  5.906690
  18811.054  18811.020  0.500  1.212281  10.546545  19.837554  5.902027
  18816.631  18816.600  0.500  1.211188  10.530751  19.810509  5.900424
  18822.212  18822.200  0.500  1.210347  10.515337  19.785162  5.897833
  18827.796  18827.810  0.500  1.209160  10.495816  19.747166  5.893499
  18833.414  18833.450  0.500  1.207967  10.479889  19.716694  5.891430
  18839.129  18839.100  0.500  1.206605  10.462522  19.681685  5.888985
  18844.785  18844.770  0.500  1.205166  10.445361  19.654911  5.889439
  18850.492  18850.460  0.500  1.204229  10.433682  19.631665  5.887992
