# XDI/1.0 BlueSky/1.10.0 BMM/2023-1.0-py310-tiled
# Beamline.name: BMM (06BM) -- Beamline for Materials Measurement (NIST)
# Beamline.xray_source: NSLS-II three-pole wiggler
# Beamline.collimation: paraboloid mirror, 5 nm Rh on 30 nm Pt
# Beamline.focusing: not in use
# Beamline.harmonic_rejection: flat mirror, Pt stripe, pitch = 7.0 mrad relative to beam
# Beamline.software: Bluesky 1.10.0, Ophyd 1.7.0, DataBroker 2.0.0b13, Python 3.10.8, 2023-1.0-py310-tiled
# Detector.I0: 10 cm N2
# Detector.I1: 25 cm N2
# Detector.I2: 25 cm N2
# Element.symbol: Tm
# Element.edge: L1
# Element.reference: Tm
# Element.reference_material: Tm2O3
# Facility.name: NSLS-II
# Facility.energy: 3.0
# Facility.current: 399.1
# Facility.mode: top-off
# Facility.GUP: 301027
# Facility.SAF: 310583
# Facility.cycle: 2023-2
# Mono.name: Si(111)
# Mono.d_spacing: 3.1351860
# Mono.encoder_resolution: 0.0000050 deg/ct
# Mono.angle_offset: 16.0754326 deg
# Mono.scan_mode: pseudo channel cut
# Mono.scan_type: step
# Mono.direction: forward in energy
# Sample.name: Tm2O3
# Sample.prep: PEG pellet
# Sample.x: 109.138 mm
# Sample.y: 153.150 mm
# Sample.SDD_position: 205.000 mm
# Scan.experimenters: Bruce Ravel
# Scan.edge_energy: 10115.7
# Scan.start_time: 2023-05-28T17:28:36
# Scan.end_time: 2023-05-28T17:37:41
# Scan.transient_id: 78875
# Scan.uid: 960233a9-57fd-46de-89e4-ffed7eb1a5c7
# Scan.plot_hint: ln(It/Ir)  --  ln($6/$7)
# Column.1: energy eV
# Column.2: requested_energy eV
# Column.3: measurement_time seconds
# Column.4: xmu 
# Column.5: I0 nA
# Column.6: It nA
# Column.7: Ir nA
# ///////////
# sample courtesy Martin Stennett, University of Sheffield
# -----------
# energy  requested_energy  measurement_time  xmu  I0  It  Ir
  9915.538  9915.700  0.500  0.989053  98.846292  150.527011  55.985348
  9925.732  9925.700  0.500  0.986475  98.662730  150.361001  56.067912
  9935.764  9935.700  0.500  0.984380  98.556912  150.325174  56.172111
  9945.783  9945.700  0.500  0.982506  98.343762  150.111796  56.197601
  9955.753  9955.700  0.500  0.981278  97.609920  149.112845  55.892207
  9965.732  9965.700  0.500  0.977476  97.815130  149.536243  56.264427
  9975.739  9975.700  0.500  0.975873  97.823531  149.674122  56.406694
  9985.741  9985.700  0.500  0.976402  95.557045  146.294789  55.103984
  9995.750  9995.700  0.500  0.971211  97.340321  149.129719  56.464152
  10005.706  10005.700  0.500  0.969556  97.316960  149.203713  56.585704
  10015.730  10015.700  0.500  0.967848  94.938517  145.675120  55.341916
  10025.719  10025.700  0.500  0.965676  96.889350  148.751094  56.633370
  10035.736  10035.700  0.500  0.963031  95.811446  147.225853  56.201152
  10045.726  10045.700  0.500  0.961051  96.576218  148.505690  56.802053
  10055.736  10055.700  0.500  0.958664  96.402314  148.347398  56.877119
  10065.731  10065.700  0.500  0.956400  96.186364  148.108079  56.914067
  10075.746  10075.700  0.500  0.954330  96.027929  147.958013  56.974185
  10085.743  10085.700  0.500  0.953040  95.832857  147.773507  56.976583
  10087.702  10087.700  0.500  0.952906  95.651672  147.519582  56.886331
  10089.680  10089.700  0.500  0.952449  93.382695  144.049368  55.573520
  10091.689  10091.700  0.500  0.952338  95.448377  147.249218  56.814327
  10093.691  10093.700  0.500  0.951924  95.602814  147.495534  56.932939
  10095.693  10095.700  0.500  0.951713  95.594732  147.531143  56.958705
  10097.692  10097.700  0.500  0.951472  95.570839  147.499859  56.960340
  10099.718  10099.700  0.500  0.951241  95.546898  147.490166  56.969774
  10101.736  10101.700  0.500  0.951039  95.825122  147.936319  57.153609
  10104.108  10103.700  0.500  0.950860  95.820780  147.965026  57.174973
  10105.725  10105.700  0.500  0.950485  95.839434  147.987338  57.205003
  10106.194  10106.000  0.500  0.950775  95.798131  147.935025  57.168230
  10106.256  10106.300  0.500  0.950790  95.801820  147.946317  57.171727
  10106.556  10106.600  0.500  0.950923  95.771170  147.887264  57.141297
  10106.861  10106.900  0.500  0.950577  95.807640  147.953887  57.186857
  10107.162  10107.200  0.500  0.950808  95.769186  147.918794  57.160071
  10107.458  10107.500  0.500  0.950758  95.771400  147.909465  57.159322
  10107.763  10107.800  0.500  0.950710  95.773214  147.910894  57.162596
  10108.069  10108.100  0.500  0.950793  95.749419  147.884273  57.147561
  10108.378  10108.400  0.500  0.950853  95.747811  147.876840  57.141303
  10108.679  10108.700  0.500  0.950775  95.740863  147.854593  57.137124
  10108.980  10109.000  0.500  0.950817  95.738821  147.858676  57.136322
  10109.280  10109.300  0.500  0.950950  95.719923  147.828761  57.117179
  10109.581  10109.600  0.500  0.950864  95.718403  147.832798  57.123620
  10109.962  10109.900  0.500  0.950892  95.714378  147.822642  57.118110
  10110.156  10110.200  0.500  0.950953  95.696889  147.811144  57.110164
  10110.488  10110.500  0.500  0.950931  95.687606  147.808204  57.110279
  10110.780  10110.800  0.500  0.951182  95.661802  147.783282  57.086332
  10111.143  10111.100  0.500  0.951128  95.670553  147.804284  57.097541
  10111.435  10111.400  0.500  0.951208  95.654105  147.775207  57.081710
  10111.749  10111.700  0.500  0.951180  95.656687  147.782177  57.086017
  10111.957  10112.000  0.500  0.951306  95.592828  147.686927  57.042070
  10112.347  10112.300  0.500  0.951419  95.572726  147.645472  57.019580
  10112.670  10112.600  0.500  0.951482  95.524603  147.592590  56.995578
  10112.856  10112.900  0.500  0.951368  95.523721  147.579632  56.997089
  10113.152  10113.200  0.500  0.951738  95.506593  147.553505  56.965917
  10113.471  10113.500  0.500  0.951785  95.521885  147.574693  56.971388
  10113.763  10113.800  0.500  0.951971  95.502488  147.547134  56.950178
  10114.073  10114.100  0.500  0.952235  95.476655  147.520407  56.924807
  10114.379  10114.400  0.500  0.952348  95.489834  147.548166  56.929126
  10114.666  10114.700  0.500  0.952815  95.458875  147.494365  56.881769
  10114.972  10115.000  0.500  0.952883  95.480645  147.527024  56.890487
  10115.269  10115.300  0.500  0.953375  95.449087  147.492076  56.849020
  10115.579  10115.600  0.500  0.953716  95.448445  147.497559  56.831764
  10115.884  10115.900  0.500  0.954253  95.440138  147.489940  56.798348
  10116.168  10116.200  0.500  0.954528  95.440281  147.490702  56.782996
  10116.473  10116.500  0.500  0.955167  95.425525  147.463468  56.736233
  10116.770  10116.800  0.500  0.955696  95.428090  147.468540  56.708178
  10117.072  10117.100  0.500  0.956326  95.414080  147.454626  56.667149
  10117.382  10117.400  0.500  0.957161  95.404802  147.446126  56.616565
  10117.679  10117.700  0.500  0.957794  95.407881  147.456889  56.584888
  10117.971  10118.000  0.500  0.958617  95.394839  147.430146  56.528071
  10118.272  10118.300  0.500  0.959342  95.396966  147.420106  56.483283
  10118.569  10118.600  0.500  0.960354  95.368913  147.389334  56.414360
  10118.884  10118.900  0.500  0.961108  95.372359  147.421112  56.383978
  10119.185  10119.200  0.500  0.961941  95.372690  147.422083  56.337431
  10119.482  10119.500  0.500  0.962585  95.375996  147.427057  56.303056
  10119.788  10119.800  0.500  0.963458  95.354407  147.374233  56.233730
  10120.076  10120.100  0.500  0.964306  95.346944  147.378989  56.187880
  10120.395  10120.400  0.500  0.965087  95.336901  147.363499  56.138161
  10120.688  10120.700  0.500  0.965667  95.336055  147.357433  56.103268
  10120.994  10121.000  0.500  0.966388  95.335748  147.372889  56.068743
  10121.295  10121.300  0.500  0.967164  95.320365  147.356331  56.018923
  10121.588  10121.600  0.500  0.967835  95.320089  147.344574  55.976875
  10121.903  10121.900  0.500  0.968740  95.295637  147.308081  55.912395
  10122.200  10122.200  0.500  0.969284  95.299574  147.336642  55.892842
  10122.497  10122.500  0.500  0.970174  95.279423  147.307510  55.832064
  10122.799  10122.800  0.500  0.970705  95.293870  147.331302  55.811442
  10123.096  10123.100  0.500  0.971623  95.273079  147.291993  55.745368
  10123.402  10123.400  0.500  0.972571  95.255848  147.285636  55.690106
  10123.699  10123.700  0.500  0.973389  95.249491  147.281122  55.642872
  10123.992  10124.000  0.500  0.974186  95.237481  147.240974  55.583402
  10124.294  10124.300  0.500  0.974933  95.247385  147.268419  55.552263
  10124.586  10124.600  0.500  0.975746  95.247088  147.282859  55.512565
  10124.888  10124.900  0.500  0.976755  95.234242  147.264322  55.449560
  10125.194  10125.200  0.500  0.977704  95.218755  147.250139  55.391636
  10125.492  10125.500  0.500  0.978685  95.204997  147.229872  55.329719
  10125.793  10125.800  0.500  0.979776  95.196200  147.216161  55.264212
  10126.082  10126.100  0.500  0.980663  95.195293  147.212423  55.213843
  10126.379  10126.400  0.500  0.981756  95.179624  147.197990  55.148132
  10126.690  10126.700  0.500  0.982698  95.182659  147.202091  55.097733
  10126.987  10127.000  0.500  0.983790  95.172700  147.194196  55.034646
  10127.289  10127.300  0.500  0.985114  95.167157  147.185183  54.958453
  10127.596  10127.600  0.500  0.986262  95.158878  147.172409  54.890638
  10127.893  10127.900  0.500  0.987654  95.153123  147.167296  54.812402
  10128.204  10128.200  0.500  0.989124  95.147346  147.167358  54.731895
  10128.497  10128.500  0.500  0.990481  95.132995  147.145934  54.649701
  10128.803  10128.800  0.500  0.991928  95.127087  147.136552  54.567210
  10129.105  10129.100  0.500  0.993309  95.135392  147.153535  54.498168
  10129.398  10129.400  0.500  0.994980  95.095584  147.071137  54.376718
  10129.705  10129.700  0.500  0.996338  95.102024  147.089220  54.309614
  10130.002  10130.000  0.500  0.997610  95.109499  147.107381  54.247302
  10130.305  10130.300  0.500  0.998916  95.086398  147.087351  54.169087
  10130.607  10130.600  0.500  0.999974  95.086885  147.088186  54.112123
  10130.900  10130.900  0.500  1.000757  95.103527  147.099801  54.074057
  10131.202  10131.200  0.500  1.001736  95.054931  147.027887  53.994705
  10131.500  10131.500  0.500  1.002173  95.071064  147.047384  53.978269
  10131.797  10131.800  0.500  1.002697  95.340956  147.473865  54.106478
  10132.095  10132.100  0.500  1.003033  95.350288  147.496852  54.096716
  10132.402  10132.400  0.500  1.003163  95.350777  147.525141  54.100094
  10132.699  10132.700  0.500  1.003096  95.356265  147.531440  54.105995
  10133.011  10133.000  0.500  1.002861  95.357255  147.530038  54.118235
  10133.291  10133.300  0.500  1.002649  95.353596  147.536770  54.132167
  10133.597  10133.600  0.500  1.002333  95.350337  147.525176  54.145033
  10133.891  10133.900  0.500  1.001940  95.336003  147.496879  54.155898
  10134.193  10134.200  0.500  1.001580  95.327185  147.476362  54.167855
  10134.504  10134.500  0.500  1.001127  95.324496  147.478616  54.193238
  10134.789  10134.800  0.500  1.000809  95.306131  147.462871  54.204706
  10135.091  10135.100  0.500  1.000337  95.292471  147.452626  54.226533
  10135.393  10135.400  0.500  1.000103  95.258020  147.406800  54.222343
  10135.682  10135.700  0.500  0.999816  95.245177  147.386704  54.230504
  10135.994  10136.000  0.500  0.999329  95.260894  147.416680  54.267992
  10136.287  10136.300  0.500  0.999373  95.242157  147.376223  54.250713
  10136.598  10136.600  0.500  0.999574  95.228484  147.354092  54.231648
  10136.901  10136.900  0.500  0.999590  95.226437  147.351824  54.229957
  10137.199  10137.200  0.500  0.999646  95.239660  147.387515  54.240011
  10137.501  10137.500  0.500  0.999615  95.247189  147.390310  54.242757
  10137.808  10137.800  0.500  0.999617  95.242915  147.389699  54.242394
  10138.102  10138.100  0.500  0.999739  95.236024  147.390198  54.235954
  10138.405  10138.400  0.500  0.999934  95.237345  147.400993  54.229391
  10138.703  10138.700  0.500  0.999904  95.232302  147.405825  54.232801
  10139.001  10139.000  0.500  1.000114  95.216377  147.378315  54.211280
  10139.299  10139.300  0.500  1.000211  95.206952  147.366967  54.201841
  10139.602  10139.600  0.500  1.000310  95.199261  147.350476  54.190435
  10139.904  10139.900  0.500  1.000130  95.213417  147.358637  54.203165
  10140.202  10140.200  0.500  1.000219  95.190953  147.330319  54.187940
  10140.501  10140.500  0.500  1.000271  95.174666  147.305158  54.175841
  10140.705  10140.700  0.500  1.000314  95.169812  147.319220  54.178692
  10141.712  10141.690  0.500  0.999902  95.147128  147.297159  54.192904
  10142.696  10142.690  0.500  0.999274  95.134661  147.294210  54.225870
  10143.720  10143.710  0.500  0.998386  95.103231  147.253961  54.259184
  10144.780  10144.760  0.500  0.996921  95.085206  147.230768  54.330210
  10145.827  10145.820  0.500  0.995273  95.075606  147.215132  54.414003
  10146.919  10146.900  0.500  0.993394  95.036868  147.161812  54.496645
  10148.015  10148.000  0.500  0.991532  95.014486  147.142985  54.591211
  10149.135  10149.120  0.500  0.989603  94.995708  147.136559  54.694248
  10150.281  10150.260  0.500  0.987784  94.982469  147.124892  54.789439
  10151.405  10151.410  0.500  0.985967  94.957073  147.102965  54.880914
  10152.591  10152.590  0.500  0.984443  94.926921  147.075886  54.954527
  10153.783  10153.780  0.500  0.983129  94.902665  147.045048  55.015242
  10155.015  10155.000  0.500  0.981887  94.876953  147.011427  55.070983
  10156.261  10156.230  0.500  0.980947  94.854716  146.988861  55.114354
  10157.502  10157.480  0.500  0.980375  94.834368  146.976605  55.141287
  10158.771  10158.750  0.500  0.980088  94.801499  146.930522  55.139827
  10160.040  10160.040  0.500  0.979880  94.785696  146.914443  55.145263
  10161.349  10161.350  0.500  0.979814  94.751539  146.879090  55.135634
  10162.690  10162.680  0.500  0.979774  94.716689  146.840254  55.123260
  10164.036  10164.030  0.500  0.979725  94.699527  146.832032  55.122830
  10165.409  10165.400  0.500  0.979965  94.664361  146.798004  55.096833
  10166.774  10166.780  0.500  0.980042  94.599018  146.706212  55.058182
  10168.188  10168.190  0.500  0.980227  94.600611  146.717037  55.052023
  10169.621  10169.610  0.500  0.980384  94.593230  146.716638  55.043259
  10171.072  10171.050  0.500  0.980604  94.580094  146.697588  55.023996
  10172.518  10172.510  0.500  0.981035  94.529507  146.646933  54.981305
  10173.997  10173.990  0.500  0.981537  94.506950  146.622466  54.944508
  10175.507  10175.490  0.500  0.982125  94.479705  146.578596  54.895816
  10177.032  10177.010  0.500  0.982621  94.449297  146.561221  54.862097
  10178.561  10178.550  0.500  0.983010  94.423156  146.538660  54.832266
  10180.122  10180.110  0.500  0.983477  94.404502  146.516409  54.798383
  10181.684  10181.680  0.500  0.984126  94.367832  146.464418  54.743366
  10183.282  10183.280  0.500  0.984857  94.319766  146.413012  54.684187
  10184.907  10184.890  0.500  0.985155  94.308053  146.432701  54.675251
  10186.538  10186.530  0.500  0.985486  94.271842  146.394504  54.642860
  10188.196  10188.180  0.500  0.985605  94.233522  146.337932  54.615290
  10189.850  10189.850  0.500  0.985338  94.200041  146.300950  54.616035
  10191.554  10191.540  0.500  0.984719  94.172168  146.271145  54.638751
  10193.259  10193.250  0.500  0.984065  94.086589  146.152525  54.630137
  10194.982  10194.980  0.500  0.982911  93.839317  145.782877  54.554901
  10196.728  10196.730  0.500  0.981845  94.039957  146.118286  54.738704
  10198.511  10198.490  0.500  0.980421  94.047851  146.138494  54.824293
  10200.299  10200.280  0.500  0.978966  94.014011  146.105719  54.891836
  10202.083  10202.080  0.500  0.977728  93.966645  146.052223  54.939710
  10203.918  10203.910  0.500  0.976576  93.933320  146.019169  54.990593
  10205.771  10205.750  0.500  0.975926  93.878482  145.968207  55.007144
  10207.620  10207.610  0.500  0.975260  93.847489  145.948984  55.036535
  10209.480  10209.490  0.500  0.974628  93.822890  145.928511  55.063609
  10211.389  10211.390  0.500  0.974365  93.777840  145.876644  55.058526
  10213.326  10213.310  0.500  0.974041  93.749787  145.842482  55.063428
  10215.260  10215.250  0.500  0.973674  93.723257  145.799279  55.067322
  10217.212  10217.210  0.500  0.973541  93.677787  145.746242  55.054640
  10219.179  10219.180  0.500  0.973182  93.636256  145.703556  55.058293
  10221.187  10221.180  0.500  0.972603  93.603715  145.688836  55.084571
  10223.191  10223.190  0.500  0.972025  93.558446  145.646270  55.100353
  10225.237  10225.220  0.500  0.971149  93.525469  145.605838  55.133314
  10227.302  10227.280  0.500  0.970757  93.439240  145.512222  55.119485
  10229.372  10229.350  0.500  0.969953  93.430841  145.498260  55.158496
  10231.443  10231.440  0.500  0.969368  93.394710  145.452977  55.173640
  10233.552  10233.550  0.500  0.968730  93.352080  145.402007  55.189469
  10235.702  10235.680  0.500  0.968176  93.303118  145.346020  55.198778
  10237.835  10237.820  0.500  0.967569  93.232281  145.271755  55.204109
  10239.986  10239.990  0.500  0.967153  92.916196  144.798058  55.047004
  10242.203  10242.180  0.500  0.966708  93.209418  145.287931  55.257776
  10244.406  10244.380  0.500  0.966712  93.141544  145.202744  55.225168
  10246.593  10246.600  0.500  0.966713  93.100867  145.158556  55.208293
  10248.876  10248.850  0.500  0.966511  93.061630  145.113926  55.202486
  10251.119  10251.110  0.500  0.966653  93.011994  145.068932  55.177537
  10253.390  10253.390  0.500  0.966918  92.969617  145.032449  55.149057
  10255.703  10255.690  0.500  0.967128  92.927103  144.954827  55.107961
  10258.027  10258.010  0.500  0.967135  92.885127  144.906870  55.089349
  10260.361  10260.350  0.500  0.966923  92.840755  144.864365  55.084869
  10262.718  10262.700  0.500  0.966360  92.790846  144.809746  55.095099
  10265.095  10265.080  0.500  0.965785  92.740749  144.766802  55.110432
  10267.473  10267.470  0.500  0.965258  92.694035  144.725424  55.123730
  10269.912  10269.890  0.500  0.964702  92.636549  144.663808  55.130921
  10272.334  10272.320  0.500  0.964255  92.585948  144.602578  55.132221
  10274.775  10274.770  0.500  0.963620  92.529441  144.549686  55.147055
  10277.262  10277.250  0.500  0.962675  92.210413  144.067336  55.015015
  10279.747  10279.740  0.500  0.962120  92.456375  144.466005  55.197885
  10282.251  10282.250  0.500  0.960992  92.413440  144.416013  55.241010
  10284.784  10284.770  0.500  0.959950  92.362337  144.364325  55.278843
  10287.327  10287.320  0.500  0.958982  92.299863  144.291298  55.304398
  10289.899  10289.890  0.500  0.957794  92.260803  144.253294  55.355547
  10292.486  10292.470  0.500  0.957088  92.195474  144.191175  55.370808
  10295.075  10295.080  0.500  0.956179  92.148587  144.128619  55.397097
  10297.706  10297.700  0.500  0.955927  92.090569  144.064316  55.386318
  10300.366  10300.350  0.500  0.955536  92.046633  144.009052  55.386749
  10303.018  10303.010  0.500  0.955129  92.003397  143.960615  55.390658
  10305.709  10305.690  0.500  0.954928  91.942327  143.896376  55.377073
  10308.391  10308.390  0.500  0.954454  91.885781  143.830113  55.377801
  10311.117  10311.110  0.500  0.953976  91.836361  143.781274  55.385483
  10313.848  10313.850  0.500  0.953367  91.790046  143.738594  55.402770
  10316.609  10316.600  0.500  0.952677  91.733696  143.675247  55.416589
  10319.385  10319.380  0.500  0.952091  91.679471  143.629329  55.431331
  10322.172  10322.170  0.500  0.951498  91.520038  143.398369  55.375016
  10324.998  10324.990  0.500  0.950764  91.590289  143.526409  55.465186
  10327.824  10327.820  0.500  0.950198  91.521504  143.459282  55.470604
  10330.685  10330.670  0.500  0.949556  91.456012  143.383876  55.477044
  10333.562  10333.550  0.500  0.948778  91.392800  143.320340  55.495618
  10336.449  10336.440  0.500  0.948056  91.343636  143.260015  55.512353
  10339.370  10339.350  0.500  0.947534  91.278684  143.186506  55.512841
  10342.270  10342.270  0.500  0.946926  91.224631  143.113340  55.518205
  10345.236  10345.220  0.500  0.946294  91.183495  143.067799  55.535641
  10348.200  10348.190  0.500  0.945973  91.123826  143.003187  55.528379
  10351.174  10351.170  0.500  0.945774  91.058666  142.931201  55.511461
  10354.183  10354.180  0.500  0.945481  91.001612  142.879964  55.507809
  10357.217  10357.200  0.500  0.944973  90.942384  142.819118  55.512376
  10360.262  10360.250  0.500  0.944368  90.894814  142.772836  55.527946
  10363.308  10363.310  0.500  0.944073  90.815702  142.675765  55.506561
  10366.404  10366.390  0.500  0.943552  90.748870  142.599739  55.505914
  10369.491  10369.490  0.500  0.942700  90.677621  142.498100  55.513641
  10372.632  10372.610  0.500  0.942047  90.603781  142.406977  55.514353
  10375.751  10375.750  0.500  0.941294  90.540158  142.329683  55.526046
  10378.905  10378.900  0.500  0.940654  90.483770  142.275335  55.540382
  10382.103  10382.080  0.500  0.939776  90.416549  142.211480  55.564189
  10385.266  10385.270  0.500  0.938941  90.350789  142.148279  55.585900
  10388.501  10388.490  0.500  0.937971  90.291799  142.082750  55.614217
  10391.719  10391.720  0.500  0.937112  90.233652  142.006389  55.632069
  10394.990  10394.970  0.500  0.936273  90.169011  141.927763  55.647944
  10398.250  10398.250  0.500  0.935575  90.100689  141.855143  55.658335
  10401.568  10401.540  0.500  0.934479  90.056099  141.796124  55.696173
  10404.860  10404.850  0.500  0.933789  89.981881  141.720867  55.705032
  10408.196  10408.170  0.500  0.933219  89.906065  141.628728  55.700566
  10411.535  10411.520  0.500  0.932463  89.846789  141.565795  55.717934
  10414.894  10414.890  0.500  0.931876  89.781377  141.498449  55.724085
  10418.289  10418.270  0.500  0.931174  89.722803  141.424058  55.733910
  10421.700  10421.680  0.500  0.930698  89.651437  141.333256  55.724663
  10425.127  10425.100  0.500  0.930272  89.573201  141.254299  55.717240
  10428.566  10428.550  0.500  0.929610  89.507190  141.191552  55.729396
  10432.041  10432.010  0.500  0.928765  89.447902  141.121599  55.748840
  10435.504  10435.490  0.500  0.928280  89.373867  141.024220  55.737421
  10439.021  10438.990  0.500  0.927500  89.306340  140.940248  55.747714
  10442.540  10442.510  0.500  0.926674  89.433349  141.184362  55.890399
  10446.085  10446.050  0.500  0.925880  89.443261  141.234203  55.954512
  10449.624  10449.600  0.500  0.925248  89.377876  141.179388  55.968196
  10453.212  10453.180  0.500  0.924568  89.325506  141.141454  55.991229
  10456.812  10456.780  0.500  0.923961  89.257958  141.053964  55.990457
  10460.415  10460.390  0.500  0.923185  89.197627  140.972584  56.001630
  10464.049  10464.020  0.500  0.922620  89.132713  140.890246  56.000513
  10467.690  10467.680  0.500  0.921930  89.052379  140.800673  56.003580
  10471.381  10471.350  0.500  0.921021  88.988864  140.743696  56.031797
  10475.060  10475.040  0.500  0.920362  88.915868  140.664660  56.037280
  10478.771  10478.750  0.500  0.919573  88.843435  140.577778  56.046838
  10482.513  10482.480  0.500  0.918857  88.770758  140.492935  56.053121
  10486.244  10486.220  0.500  0.918039  88.697713  140.407452  56.064868
  10490.010  10489.990  0.500  0.917326  88.629142  140.328166  56.073208
  10493.813  10493.780  0.500  0.916607  88.555372  140.229271  56.073967
  10497.613  10497.580  0.500  0.915834  88.475886  140.159108  56.089235
  10501.446  10501.410  0.500  0.915041  88.401913  140.069421  56.097823
  10505.281  10505.250  0.500  0.914189  88.333967  139.990270  56.113893
  10509.123  10509.110  0.500  0.913316  88.262518  139.905107  56.128739
  10513.031  10512.990  0.500  0.912613  88.126791  139.732768  56.099035
  10516.908  10516.890  0.500  0.911776  88.100522  139.719920  56.140852
  10520.846  10520.810  0.500  0.910761  88.028360  139.633517  56.163117
  10524.763  10524.750  0.500  0.909968  87.901196  139.465694  56.140123
  10528.750  10528.710  0.500  0.909341  87.867360  139.450251  56.169131
  10532.706  10532.680  0.500  0.908313  87.803109  139.370196  56.194618
  10536.723  10536.680  0.500  0.907564  87.714678  139.268654  56.195727
  10540.710  10540.690  0.500  0.906623  87.567203  139.067162  56.167274
  10544.757  10544.730  0.500  0.905973  87.549236  139.080714  56.209279
  10548.794  10548.780  0.500  0.905098  87.480851  138.984085  56.219377
  10552.891  10552.850  0.500  0.904317  87.389530  138.870944  56.217478
  10556.962  10556.940  0.500  0.903524  87.242468  138.679824  56.184680
  10561.081  10561.050  0.500  0.902699  87.238720  138.700998  56.239604
  10565.202  10565.180  0.500  0.901961  87.162095  138.613701  56.245745
  10569.356  10569.330  0.500  0.901269  87.081575  138.531766  56.251371
  10573.523  10573.490  0.500  0.900635  86.996656  138.437602  56.248785
  10577.703  10577.680  0.500  0.899601  86.923327  138.354021  56.272978
  10581.905  10581.880  0.500  0.899226  86.831272  138.233799  56.245208
  10586.141  10586.110  0.500  0.898243  86.544035  137.814260  56.129629
  10590.384  10590.350  0.500  0.897628  86.678106  138.061387  56.264886
  10594.636  10594.610  0.500  0.896744  86.597665  137.962520  56.274332
  10598.930  10598.890  0.500  0.895847  86.401948  137.706028  56.220090
  10603.218  10603.190  0.500  0.894807  86.423013  137.785481  56.311081
  10607.544  10607.510  0.500  0.893987  86.337016  137.642965  56.298964
  10611.879  10611.850  0.500  0.892963  86.158835  137.405844  56.259535
  10616.246  10616.210  0.500  0.892093  86.162204  137.439545  56.322335
  10620.617  10620.590  0.500  0.891391  85.953090  137.155854  56.245564
  10625.011  10624.980  0.500  0.890303  85.997308  137.242072  56.342146
  10629.418  10629.400  0.500  0.889487  85.910505  137.149315  56.350039
  10633.854  10633.830  0.500  0.888657  85.828970  137.050692  56.356312
  10638.294  10638.280  0.500  0.887824  85.736927  136.940952  56.358105
  10642.777  10642.750  0.500  0.886536  85.127441  135.998162  56.042206
  10647.253  10647.240  0.500  0.885974  85.579304  136.764244  56.389577
  10651.778  10651.750  0.500  0.885413  85.485957  136.644234  56.371720
  10656.307  10656.280  0.500  0.884552  85.394090  136.534427  56.374962
  10660.864  10660.830  0.500  0.883699  85.197724  136.263942  56.311280
  10665.430  10665.400  0.500  0.883051  85.235304  136.351082  56.383811
  10670.001  10669.980  0.500  0.882271  85.131634  136.220338  56.373679
  10674.634  10674.590  0.500  0.881304  85.032771  136.092510  56.375282
  10679.232  10679.210  0.500  0.880850  84.473714  135.223992  56.040938
  10683.894  10683.860  0.500  0.879461  84.870397  135.897063  56.398182
  10688.554  10688.520  0.500  0.878685  84.773497  135.775201  56.391333
  10693.224  10693.200  0.500  0.877483  84.676261  135.654322  56.408912
  10697.928  10697.900  0.500  0.876216  84.160233  134.862795  56.150832
  10702.641  10702.620  0.500  0.875792  84.517157  135.482995  56.432984
  10707.398  10707.360  0.500  0.874849  84.420347  135.353840  56.432372
  10712.134  10712.110  0.500  0.873899  84.324760  135.239912  56.438496
  10716.924  10716.890  0.500  0.873143  84.235864  135.140928  56.439844
  10721.704  10721.690  0.500  0.872332  84.139606  135.016382  56.433542
  10726.528  10726.500  0.500  0.871301  84.049549  134.902132  56.443978
  10731.357  10731.330  0.500  0.870577  83.951035  134.774658  56.431490
  10736.225  10736.190  0.500  0.869726  83.861197  134.655008  56.429406
  10741.092  10741.060  0.500  0.868702  83.642420  134.356335  56.361915
  10745.984  10745.950  0.500  0.867889  83.658953  134.406700  56.428897
  10750.880  10750.860  0.500  0.867122  83.565394  134.304484  56.429220
  10755.817  10755.790  0.500  0.865955  83.469648  134.187065  56.445750
  10760.757  10760.730  0.500  0.865209  83.364277  134.068595  56.437982
  10765.723  10765.700  0.500  0.864119  83.271871  133.942289  56.446312
  10770.723  10770.690  0.500  0.863283  83.167697  133.819182  56.441612
  10775.718  10775.690  0.500  0.862256  83.071998  133.688860  56.444588
  10780.758  10780.720  0.500  0.861271  82.974688  133.558222  56.444978
  10785.793  10785.760  0.500  0.860252  82.566414  132.956114  56.247811
  10790.838  10790.820  0.500  0.859045  82.775515  133.327981  56.473250
  10795.938  10795.900  0.500  0.858316  82.674206  133.207612  56.463397
  10801.037  10801.000  0.500  0.857092  82.278657  132.620756  56.283538
  10806.162  10806.120  0.500  0.856303  82.424002  132.882848  56.439243
  10811.302  10811.260  0.500  0.855599  82.396746  132.882303  56.478744
  10816.442  10816.420  0.500  0.854605  82.303244  132.744951  56.476509
  10821.633  10821.600  0.500  0.853711  82.198860  132.611921  56.470359
  10826.819  10826.790  0.500  0.852862  82.076231  132.460373  56.453724
  10832.045  10832.010  0.500  0.851946  81.949542  132.287754  56.431835
  10837.271  10837.240  0.500  0.851081  81.883484  132.219345  56.451458
  10842.518  10842.490  0.500  0.850096  81.770118  132.072587  56.444393
  10847.796  10847.760  0.500  0.848789  81.348436  131.428222  56.242468
  10853.078  10853.050  0.500  0.848160  81.546587  131.780147  56.428509
  10858.402  10858.360  0.500  0.847242  81.461652  131.693981  56.443456
  10863.721  10863.690  0.500  0.846326  81.375157  131.590033  56.450579
  10869.065  10869.040  0.500  0.845475  81.070655  131.135408  56.303434
  10874.446  10874.410  0.500  0.844217  81.150648  131.288283  56.440018
  10879.807  10879.790  0.500  0.843168  81.040891  131.131820  56.431918
  10885.239  10885.200  0.500  0.842060  80.937364  130.997928  56.436831
  10890.657  10890.620  0.500  0.841128  80.828888  130.873951  56.435988
  10896.106  10896.070  0.500  0.840155  80.722851  130.745629  56.435502
  10901.561  10901.530  0.500  0.839143  80.616460  130.611767  56.434842
  10907.031  10907.010  0.500  0.838110  80.506736  130.453865  56.424829
  10912.538  10912.510  0.500  0.837368  80.398337  130.320756  56.409089
  10918.045  10918.030  0.500  0.836207  80.239995  130.104893  56.381090
  10923.595  10923.570  0.500  0.835106  80.170608  130.034372  56.412625
  10929.150  10929.120  0.500  0.834345  80.068416  129.905591  56.399673
  10934.716  10934.700  0.500  0.833584  79.963588  129.775951  56.386250
  10940.319  10940.300  0.500  0.832487  79.863700  129.649629  56.393227
  10945.922  10945.910  0.500  0.831420  79.746105  129.508159  56.391801
  10951.573  10951.550  0.500  0.830508  79.586990  129.291597  56.348892
  10957.215  10957.200  0.500  0.829600  79.529865  129.213163  56.365854
  10962.899  10962.870  0.500  0.828685  79.415801  129.073194  56.356331
  10968.568  10968.560  0.500  0.827615  79.310441  128.929948  56.354080
