# XDI/1.0 BlueSky/1.10.0 BMM/2023-1.0-py310-tiled
# Beamline.name: BMM (06BM) -- Beamline for Materials Measurement (NIST)
# Beamline.xray_source: NSLS-II three-pole wiggler
# Beamline.collimation: paraboloid mirror, 5 nm Rh on 30 nm Pt
# Beamline.focusing: not in use
# Beamline.harmonic_rejection: flat mirror, Pt stripe, pitch = 7.0 mrad relative to beam
# Beamline.software: Bluesky 1.10.0, Ophyd 1.7.0, DataBroker 2.0.0b13, Python 3.10.8, 2023-1.0-py310-tiled
# Detector.I0: 10 cm N2
# Detector.I1: 25 cm N2
# Detector.I2: 25 cm N2
# Element.symbol: Lu
# Element.edge: L1
# Element.reference: Lu
# Element.reference_material: Lu2O3
# Facility.name: NSLS-II
# Facility.energy: 3.0
# Facility.current: 400.6
# Facility.mode: top-off
# Facility.GUP: 123456
# Facility.SAF: 301027
# Facility.cycle: 2023-2
# Mono.name: Si(111)
# Mono.d_spacing: 3.1351860
# Mono.encoder_resolution: 0.0000050 deg/ct
# Mono.angle_offset: 16.0754326 deg
# Mono.scan_mode: pseudo channel cut
# Mono.scan_type: step
# Mono.direction: forward in energy
# Sample.name: Lu2TiO5
# Sample.prep: Powder in PEG pellet
# Sample.x: 149.848 mm
# Sample.y: 114.690 mm
# Sample.SDD_position: 205.000 mm
# Scan.experimenters: Bruce Ravel
# Scan.edge_energy: 10870.4
# Scan.start_time: 2023-05-08T23:11:23
# Scan.end_time: 2023-05-08T23:17:06
# Scan.transient_id: 75711
# Scan.uid: 26c7d0ff-6972-44b1-a57b-4815277eecb1
# Scan.plot_hint: ln(I0/It)  --  ln($5/$6)
# Column.1: energy eV
# Column.2: requested_energy eV
# Column.3: measurement_time seconds
# Column.4: xmu 
# Column.5: I0 nA
# Column.6: It nA
# Column.7: Ir nA
# ///////////
# sample courtesy Martin Stennett, University of Sheffield
# -----------
# energy  requested_energy  measurement_time  xmu  I0  It  Ir
  10670.465  10670.400  0.500  0.721064  83.087030  40.399780  7.211127
  10680.509  10680.400  0.500  0.718961  82.880109  40.384012  7.224989
  10690.497  10690.400  0.500  0.717008  82.664276  40.357574  7.248302
  10700.445  10700.400  0.500  0.715054  82.483880  40.348289  7.275157
  10710.472  10710.400  0.500  0.713089  82.283090  40.329236  7.292145
  10720.418  10720.400  0.500  0.711330  82.078335  40.299687  7.304850
  10730.423  10730.400  0.500  0.709574  81.883896  40.274876  7.328805
  10740.446  10740.400  0.500  0.707883  81.547703  40.177419  7.332198
  10750.389  10750.400  0.500  0.705937  81.496480  40.230387  7.357438
  10760.441  10760.400  0.500  0.703335  80.473661  39.828995  7.304063
  10770.421  10770.400  0.500  0.701441  80.362223  39.849248  7.333126
  10780.430  10780.400  0.500  0.699485  80.152696  39.823159  7.355351
  10790.418  10790.400  0.500  0.697636  79.954332  39.798101  7.377853
  10800.410  10800.400  0.500  0.695944  79.490667  39.634312  7.376253
  10810.425  10810.400  0.500  0.694241  79.585131  39.749044  7.425897
  10820.414  10820.400  0.500  0.692560  79.368798  39.707711  7.434377
  10830.416  10830.400  0.500  0.691121  78.935015  39.547558  7.412484
  10840.412  10840.400  0.500  0.689340  78.959493  39.630327  7.439460
  10842.370  10842.400  0.500  0.689018  78.902393  39.614447  7.438642
  10844.370  10844.400  0.500  0.688718  78.855455  39.602738  7.438996
  10846.371  10846.400  0.500  0.688280  78.654031  39.518897  7.426694
  10848.362  10848.400  0.500  0.688378  78.743168  39.559806  7.435874
  10850.365  10850.400  0.500  0.688110  78.750956  39.574333  7.440815
  10852.363  10852.400  0.500  0.687751  78.691730  39.558776  7.439722
  10854.367  10854.400  0.500  0.687785  78.439979  39.430849  7.417515
  10856.366  10856.400  0.500  0.687577  78.625591  39.532390  7.436587
  10858.376  10858.400  0.500  0.687402  78.552649  39.502628  7.430277
  10860.357  10860.400  0.500  0.687484  78.269981  39.357240  7.400966
  10860.859  10860.900  0.500  0.687580  78.381108  39.409357  7.410692
  10861.360  10861.400  0.500  0.687606  78.473734  39.454891  7.417731
  10861.857  10861.900  0.500  0.687473  78.485148  39.465892  7.419130
  10862.369  10862.400  0.500  0.687431  78.508817  39.479427  7.420022
  10862.860  10862.900  0.500  0.687442  78.492322  39.470695  7.416054
  10863.367  10863.400  0.500  0.687622  78.484993  39.459904  7.413592
  10863.864  10863.900  0.500  0.687641  78.453534  39.443358  7.408093
  10864.376  10864.400  0.500  0.687735  78.432653  39.429158  7.401594
  10864.873  10864.900  0.500  0.687830  78.421418  39.419737  7.399422
  10865.370  10865.400  0.500  0.687803  78.402624  39.411387  7.393170
  10865.872  10865.900  0.500  0.687925  78.384467  39.397442  7.387786
  10866.364  10866.400  0.500  0.688298  78.373799  39.377383  7.380600
  10866.877  10866.900  0.500  0.688192  78.225516  39.307065  7.361543
  10867.358  10867.400  0.500  0.688474  78.064707  39.215180  7.338780
  10867.866  10867.900  0.500  0.688903  78.082881  39.207484  7.330608
  10868.363  10868.400  0.500  0.689333  78.201629  39.250225  7.330193
  10868.865  10868.900  0.500  0.689635  78.282080  39.278763  7.327335
  10869.373  10869.400  0.500  0.689952  78.324101  39.287373  7.316904
  10869.876  10869.900  0.500  0.690368  78.317378  39.267664  7.300366
  10870.373  10870.400  0.500  0.690959  78.306093  39.238802  7.276816
  10870.896  10870.900  0.500  0.691823  78.301732  39.202750  7.251453
  10871.388  10871.400  0.500  0.692667  78.288087  39.162849  7.220516
  10871.886  10871.900  0.500  0.693745  78.262957  39.108094  7.182510
  10872.389  10872.400  0.500  0.694992  78.241774  39.048765  7.139058
  10872.897  10872.900  0.500  0.696360  78.225542  38.987311  7.096373
  10873.389  10873.400  0.500  0.697781  78.201104  38.919774  7.051629
  10873.892  10873.900  0.500  0.699072  78.200886  38.869452  7.009674
  10874.390  10874.400  0.500  0.700259  78.152380  38.799270  6.968989
  10874.882  10874.900  0.500  0.701466  78.103368  38.728160  6.928677
  10875.391  10875.400  0.500  0.702685  78.031160  38.645233  6.888332
  10875.883  10875.900  0.500  0.703775  78.010806  38.593054  6.849837
  10876.381  10876.400  0.500  0.704929  78.027061  38.556577  6.817379
  10876.890  10876.900  0.500  0.706110  78.082798  38.538560  6.784340
  10877.383  10877.400  0.500  0.707168  78.111488  38.511964  6.748827
  10877.881  10877.900  0.500  0.708443  78.087225  38.450949  6.708347
  10878.389  10878.400  0.500  0.709862  78.075059  38.390451  6.667058
  10878.892  10878.900  0.500  0.711262  78.067951  38.333263  6.625517
  10879.385  10879.400  0.500  0.712667  78.069061  38.279990  6.584681
  10879.904  10879.900  0.500  0.714199  78.050118  38.212114  6.541267
  10880.408  10880.400  0.500  0.715728  78.042364  38.149938  6.497833
  10880.896  10880.900  0.500  0.717393  78.025818  38.078389  6.449509
  10881.399  10881.400  0.500  0.719066  78.006973  38.005549  6.397320
  10881.903  10881.900  0.500  0.721117  78.012262  37.930266  6.342316
  10882.402  10882.400  0.500  0.723131  78.001937  37.848924  6.283210
  10882.905  10882.900  0.500  0.725419  77.985579  37.754500  6.216086
  10883.404  10883.400  0.500  0.727826  77.966659  37.654594  6.148668
  10883.882  10883.900  0.500  0.730236  77.945995  37.554012  6.086394
  10884.386  10884.400  0.500  0.732525  77.965410  37.477491  6.025299
  10884.885  10884.900  0.500  0.734454  77.940979  37.393536  5.970230
  10885.394  10885.400  0.500  0.736175  77.930129  37.324044  5.929008
  10885.893  10885.900  0.500  0.737432  77.918890  37.271768  5.899762
  10886.397  10886.400  0.500  0.738130  77.889106  37.231518  5.881845
  10886.890  10886.900  0.500  0.738361  77.887877  37.222354  5.878422
  10887.405  10887.400  0.500  0.738249  77.884882  37.225078  5.883414
  10887.904  10887.900  0.500  0.737596  77.854695  37.234955  5.895669
  10888.403  10888.400  0.500  0.736953  77.841460  37.252595  5.912314
  10888.897  10888.900  0.500  0.736207  77.848164  37.283603  5.932797
  10889.406  10889.400  0.500  0.735319  77.843315  37.314380  5.950470
  10889.911  10889.900  0.500  0.734475  77.833184  37.341053  5.965472
  10890.395  10890.400  0.500  0.733818  77.824179  37.361270  5.976358
  10890.899  10890.900  0.500  0.733174  77.820238  37.383422  5.983126
  10891.398  10891.400  0.500  0.732674  77.810388  37.397401  5.984507
  10891.882  10891.900  0.500  0.732239  77.797285  37.407349  5.984261
  10892.387  10892.400  0.500  0.731901  77.767411  37.405651  5.980075
  10892.902  10892.900  0.500  0.731546  77.766265  37.418383  5.977507
  10893.391  10893.400  0.500  0.731219  77.753162  37.424281  5.973824
  10893.886  10893.900  0.500  0.730889  77.744214  37.432346  5.973594
  10894.406  10894.400  0.500  0.730428  77.738715  37.446955  5.972395
  10894.895  10894.900  0.500  0.730040  77.721373  37.453112  5.974580
  10895.400  10895.400  0.500  0.729648  77.699509  37.457261  5.978484
  10896.415  10896.390  0.500  0.728810  77.701340  37.489571  5.991078
  10897.410  10897.390  0.500  0.727946  77.674989  37.509239  6.007569
  10898.425  10898.410  0.500  0.727293  77.650723  37.522012  6.029525
  10899.467  10899.460  0.500  0.726553  77.607046  37.528670  6.059024
  10900.529  10900.520  0.500  0.725895  77.618092  37.558706  6.093852
  10901.602  10901.600  0.500  0.725057  77.599202  37.581055  6.128971
  10902.726  10902.700  0.500  0.724043  77.588019  37.613781  6.164366
  10903.831  10903.820  0.500  0.722950  77.541952  37.632544  6.196961
  10904.976  10904.960  0.500  0.721712  77.523873  37.670370  6.233872
  10906.122  10906.110  0.500  0.720514  77.496422  37.702192  6.266004
  10907.294  10907.290  0.500  0.719440  77.463833  37.726825  6.294280
  10908.487  10908.480  0.500  0.718319  77.431731  37.753468  6.323116
  10909.711  10909.700  0.500  0.717432  77.419977  37.781246  6.345831
  10910.936  10910.930  0.500  0.716603  77.393574  37.799676  6.362034
  10912.197  10912.180  0.500  0.715996  77.374461  37.813285  6.371214
  10913.473  10913.450  0.500  0.715434  77.335399  37.815434  6.374566
  10914.761  10914.740  0.500  0.714988  77.293856  37.811997  6.374174
  10916.054  10916.050  0.500  0.714934  77.204764  37.770455  6.364464
  10917.393  10917.380  0.500  0.715220  77.251833  37.782675  6.363031
  10918.749  10918.730  0.500  0.715345  77.226713  37.765673  6.354376
  10920.115  10920.100  0.500  0.715590  77.209917  37.748190  6.346574
  10921.503  10921.480  0.500  0.715998  77.180312  37.718325  6.334547
  10922.895  10922.890  0.500  0.716379  77.159401  37.693769  6.325167
  10924.315  10924.310  0.500  0.716720  77.137406  37.670164  6.316155
  10925.760  10925.750  0.500  0.717053  77.109002  37.643758  6.305447
  10927.242  10927.210  0.500  0.717369  77.065602  37.610687  6.293712
  10928.719  10928.690  0.500  0.717736  77.036915  37.582902  6.279762
  10930.202  10930.190  0.500  0.718125  77.011905  37.556071  6.263878
  10931.711  10931.710  0.500  0.718541  76.957602  37.513968  6.243816
  10933.252  10933.250  0.500  0.718607  76.928516  37.497318  6.228544
  10934.830  10934.810  0.500  0.718805  76.907931  37.479855  6.214840
  10936.408  10936.380  0.500  0.718667  76.896447  37.479428  6.201845
  10937.997  10937.980  0.500  0.718579  76.847908  37.459089  6.188095
  10939.602  10939.590  0.500  0.718322  77.111204  37.597078  6.199940
  10941.249  10941.230  0.500  0.717945  77.068474  37.590408  6.189409
  10942.901  10942.880  0.500  0.717706  77.052521  37.591615  6.188201
  10944.565  10944.550  0.500  0.717478  77.029714  37.589062  6.190505
  10946.245  10946.240  0.500  0.716907  76.988033  37.590200  6.196485
  10947.956  10947.950  0.500  0.716670  76.935052  37.573238  6.203096
  10949.705  10949.680  0.500  0.716332  76.847501  37.543139  6.212194
  10951.443  10951.430  0.500  0.715714  76.850728  37.567942  6.235161
  10953.198  10953.190  0.500  0.715248  76.808397  37.564745  6.256011
  10954.990  10954.980  0.500  0.714637  76.794473  37.580887  6.281919
  10956.793  10956.780  0.500  0.714049  76.751705  37.582040  6.304769
  10958.643  10958.610  0.500  0.713565  76.699346  37.574595  6.321150
  10960.457  10960.450  0.500  0.712962  76.673014  37.584358  6.336336
  10962.304  10962.310  0.500  0.712363  76.635964  37.588713  6.344112
  10964.208  10964.190  0.500  0.711966  76.595136  37.583579  6.348020
  10966.108  10966.090  0.500  0.711517  76.560842  37.583637  6.349726
  10968.024  10968.010  0.500  0.711073  76.523118  37.581802  6.350451
  10969.946  10969.950  0.500  0.710714  76.484384  37.576273  6.351572
  10971.922  10971.910  0.500  0.710212  76.442750  37.574679  6.349532
  10973.892  10973.880  0.500  0.709897  76.408611  37.569708  6.352250
  10975.890  10975.880  0.500  0.709378  76.336237  37.553623  6.353303
  10977.893  10977.890  0.500  0.708913  76.292536  37.549591  6.360335
  10979.939  10979.920  0.500  0.708384  76.208412  37.528011  6.365672
  10982.001  10981.980  0.500  0.707907  76.233211  37.558135  6.378160
  10984.049  10984.050  0.500  0.707542  76.190124  37.550601  6.384557
  10986.145  10986.140  0.500  0.707228  76.145869  37.540589  6.389666
  10988.278  10988.250  0.500  0.706802  76.105065  37.536462  6.394986
  10990.390  10990.380  0.500  0.706342  76.048500  37.525831  6.397526
  10992.541  10992.520  0.500  0.705970  76.026291  37.528808  6.402680
  10994.697  10994.690  0.500  0.705627  75.983145  37.520390  6.406288
  10996.897  10996.880  0.500  0.705397  75.914012  37.494893  6.404088
  10999.087  10999.080  0.500  0.705156  75.874592  37.484455  6.403150
  11001.309  11001.300  0.500  0.705094  75.818755  37.459166  6.396702
  11003.563  11003.550  0.500  0.705001  75.800815  37.453778  6.392305
  11005.814  11005.810  0.500  0.704770  75.743610  37.434180  6.385403
  11008.091  11008.090  0.500  0.704556  75.692930  37.417131  6.377699
  11010.407  11010.390  0.500  0.704373  75.638109  37.396892  6.367798
  11012.723  11012.710  0.500  0.704282  75.579376  37.371229  6.357455
  11015.062  11015.050  0.500  0.703925  75.514146  37.352324  6.351384
  11017.427  11017.400  0.500  0.703413  75.505786  37.367293  6.357475
  11019.784  11019.780  0.500  0.702973  75.454739  37.358486  6.362668
  11022.183  11022.170  0.500  0.702360  75.389276  37.348960  6.366888
  11024.615  11024.590  0.500  0.701828  75.340529  37.344687  6.375666
  11027.038  11027.020  0.500  0.701219  75.293862  37.344290  6.381913
  11029.478  11029.470  0.500  0.700553  75.245136  37.344970  6.390485
  11031.977  11031.950  0.500  0.699967  75.185945  37.337466  6.397948
  11034.456  11034.440  0.500  0.699432  75.139217  37.334220  6.408322
  11036.962  11036.950  0.500  0.698703  75.073780  37.328908  6.421193
  11039.486  11039.470  0.500  0.698198  75.032741  37.327350  6.436686
  11042.047  11042.020  0.500  0.697600  74.966457  37.316681  6.452073
  11044.589  11044.590  0.500  0.697161  74.910475  37.305210  6.466440
  11047.191  11047.170  0.500  0.696695  74.867036  37.300955  6.480252
  11049.782  11049.780  0.500  0.696117  74.803952  37.291057  6.489490
  11052.418  11052.400  0.500  0.695600  74.753071  37.284969  6.497389
  11055.076  11055.050  0.500  0.695179  74.708248  37.278305  6.496828
  11057.720  11057.710  0.500  0.694781  74.658640  37.268391  6.494372
  11060.417  11060.390  0.500  0.694413  74.546010  37.225844  6.487127
  11063.127  11063.090  0.500  0.693893  74.548671  37.246564  6.491747
  11065.817  11065.810  0.500  0.693512  74.474015  37.223410  6.489404
  11068.588  11068.550  0.500  0.693092  74.415509  37.209814  6.491524
  11071.329  11071.300  0.500  0.692625  74.353888  37.196363  6.494809
  11074.092  11074.080  0.500  0.691940  74.287600  37.188662  6.499111
  11076.894  11076.870  0.500  0.691510  74.223418  37.172516  6.502310
  11079.708  11079.690  0.500  0.690932  74.174953  37.169720  6.510133
  11082.539  11082.520  0.500  0.690400  74.096001  37.149928  6.511018
  11085.388  11085.370  0.500  0.689896  74.060261  37.150706  6.519762
  11088.260  11088.250  0.500  0.689285  73.987259  37.136778  6.524363
  11091.160  11091.140  0.500  0.688858  73.945722  37.131792  6.531723
  11094.088  11094.050  0.500  0.688288  73.879010  37.119425  6.536499
  11096.981  11096.970  0.500  0.687660  73.742177  37.073979  6.535919
  11099.950  11099.920  0.500  0.687374  73.775797  37.101486  6.545980
  11102.904  11102.890  0.500  0.686835  73.691612  37.079110  6.546288
  11105.881  11105.870  0.500  0.686324  73.559949  37.031782  6.539994
  11108.919  11108.880  0.500  0.685854  73.567733  37.053132  6.543321
  11111.922  11111.900  0.500  0.685513  73.476081  37.019577  6.538871
  11114.979  11114.950  0.500  0.684865  73.409766  37.010136  6.540032
  11118.033  11118.010  0.500  0.684295  73.299046  36.975386  6.538422
  11121.115  11121.090  0.500  0.683805  73.325091  37.006670  6.549666
  11124.232  11124.190  0.500  0.683350  73.270071  36.995736  6.556526
  11127.334  11127.310  0.500  0.682913  73.193850  36.973388  6.562930
  11130.475  11130.450  0.500  0.682239  73.112475  36.957188  6.568555
  11133.640  11133.600  0.500  0.681622  73.056570  36.951697  6.576618
  11136.801  11136.780  0.500  0.680986  73.004325  36.948784  6.585413
  11139.996  11139.970  0.500  0.680357  72.946053  36.942528  6.593996
  11143.210  11143.190  0.500  0.679729  72.855300  36.919731  6.600084
  11146.452  11146.420  0.500  0.679140  72.774376  36.900444  6.606722
  11149.707  11149.670  0.500  0.678449  72.728401  36.902634  6.617075
  11152.964  11152.950  0.500  0.677784  72.669297  36.897168  6.626214
  11156.271  11156.240  0.500  0.677350  72.618965  36.887623  6.633797
  11159.581  11159.550  0.500  0.676679  72.533446  36.868933  6.640870
  11162.892  11162.870  0.500  0.676055  72.469064  36.859192  6.647352
  11166.255  11166.220  0.500  0.675611  72.411898  36.846469  6.655138
  11169.608  11169.590  0.500  0.674800  72.321106  36.830126  6.659909
  11173.018  11172.970  0.500  0.674253  72.291667  36.835281  6.667924
  11176.408  11176.380  0.500  0.673701  72.220317  36.819236  6.667565
  11179.838  11179.800  0.500  0.673119  72.137103  36.798222  6.668955
  11183.276  11183.250  0.500  0.672513  72.069898  36.786237  6.670076
  11186.749  11186.710  0.500  0.671824  72.011741  36.781890  6.674216
  11190.229  11190.190  0.500  0.671270  71.953540  36.772523  6.677784
  11193.728  11193.690  0.500  0.670675  71.883576  36.758635  6.682893
  11197.250  11197.210  0.500  0.670070  71.819382  36.748034  6.689054
  11200.776  11200.750  0.500  0.669340  71.737878  36.733141  6.693803
  11204.346  11204.300  0.500  0.668722  71.665115  36.718563  6.699965
  11207.909  11207.880  0.500  0.668139  71.584062  36.698408  6.705407
  11211.517  11211.480  0.500  0.667528  71.533144  36.694704  6.713502
  11215.155  11215.090  0.500  0.666895  71.462675  36.681786  6.717902
  11218.730  11218.720  0.500  0.666161  71.373606  36.662975  6.721960
  11222.438  11222.380  0.500  0.665480  71.304029  36.652160  6.727283
  11226.078  11226.050  0.500  0.664805  71.228035  36.637826  6.732804
  11229.775  11229.740  0.500  0.664242  71.162155  36.624547  6.738611
  11233.474  11233.450  0.500  0.663586  71.040851  36.586112  6.740979
  11237.209  11237.180  0.500  0.662926  70.853343  36.513632  6.736435
  11240.968  11240.920  0.500  0.663416  69.184415  35.636100  6.584540
  11244.719  11244.690  0.500  0.661583  70.997430  36.637060  6.779105
  11248.511  11248.480  0.500  0.660982  70.890514  36.603912  6.781211
  11252.316  11252.280  0.500  0.660207  70.805680  36.588423  6.785333
  11256.146  11256.110  0.500  0.659592  70.705330  36.559074  6.788570
  11259.990  11259.950  0.500  0.658865  70.629791  36.546572  6.794197
  11263.842  11263.810  0.500  0.658167  70.544599  36.527980  6.798082
  11267.730  11267.690  0.500  0.657631  70.481538  36.514880  6.805323
  11271.631  11271.590  0.500  0.656962  70.379903  36.486613  6.809259
  11275.530  11275.510  0.500  0.656243  70.268079  36.454845  6.813710
  11279.492  11279.450  0.500  0.655407  70.207058  36.453666  6.822697
  11283.429  11283.410  0.500  0.654814  70.139691  36.440290  6.830744
  11287.414  11287.380  0.500  0.654210  70.052605  36.417024  6.836841
  11291.412  11291.380  0.500  0.653461  69.932588  36.381871  6.840728
  11295.402  11295.390  0.500  0.652630  69.765531  36.325150  6.838718
  11299.451  11299.430  0.500  0.653030  68.800908  35.808566  6.750629
  11303.508  11303.480  0.500  0.651291  69.778577  36.380614  6.867480
  11307.557  11307.550  0.500  0.650694  69.665549  36.343376  6.869333
  11311.670  11311.640  0.500  0.649823  69.524601  36.301443  6.870249
  11315.769  11315.750  0.500  0.649113  69.419403  36.272261  6.875297
  11319.905  11319.880  0.500  0.648102  69.005445  36.092429  6.848966
  11324.044  11324.030  0.500  0.647828  69.354156  36.284767  6.894381
  11328.208  11328.190  0.500  0.647145  68.788006  36.013142  6.848894
  11332.392  11332.380  0.500  0.646322  69.090752  36.201437  6.891608
  11336.596  11336.580  0.500  0.645448  68.890069  36.127844  6.884962
  11340.831  11340.810  0.500  0.645471  68.713848  36.034618  6.873626
  11345.047  11345.050  0.500  0.644128  68.489265  35.965111  6.869952
  11349.334  11349.310  0.500  0.643600  68.338938  35.905112  6.868073
  11353.612  11353.590  0.500  0.642425  67.710575  35.616788  6.822974
  11357.899  11357.890  0.500  0.648300  58.877921  30.789255  5.908802
  11362.246  11362.210  0.500  0.641142  68.976368  36.329206  6.980659
  11366.557  11366.550  0.500  0.640645  68.414087  36.050954  6.939148
  11370.933  11370.910  0.500  0.639603  68.547312  36.158819  6.970894
  11375.301  11375.290  0.500  0.639184  66.932919  35.322035  6.819693
  11379.689  11379.680  0.500  0.638187  68.368784  36.115753  6.983789
  11384.120  11384.100  0.500  0.637527  68.245544  36.074444  6.986449
  11388.549  11388.530  0.500  0.636827  68.011342  35.975827  6.978918
  11393.005  11392.980  0.500  0.635219  66.121762  35.032607  6.804776
  11397.458  11397.450  0.500  0.635172  67.747225  35.895480  6.982608
  11401.959  11401.940  0.500  0.634379  67.855883  35.981582  7.009258
  11406.471  11406.450  0.500  0.633749  67.736537  35.940934  7.011887
  11411.008  11410.980  0.500  0.632943  67.619866  35.907951  7.015767
  11415.560  11415.530  0.500  0.631726  67.092041  35.671067  6.975928
