# XDI/1.0 BlueSky/1.5.0
# Beamline.name: 6BM
# Beamline.xray_source: NSLS-II three-pole wiggler
# Beamline.collimation: paraboloid mirror, 5 nm Rh on 30 nm Pt
# Beamline.focusing: not in use
# Beamline.harmonic_rejection: flat mirror, Si stripe, pitch = 7.0 mrad relative to beam
# Detector.i0: 10 cm N2
# Detector.i1: 25 cm N2
# Detector.i2: 25 cm N2
# Element.symbol: Ti
# Element.edge: K
# Facility.name: NSLS-II
# Facility.current: 0.0 mA
# Facility.energy: 3.0 GeV
# Facility.mode: top-off
# Facility.gup: 303483
# Facility.saf: 303580
# Mono.name: Si(111)
# Mono.d_spacing: 3.1352468
# Mono.encoder_resolution: 0.0000050 deg/ct
# Mono.angle_offset: 16.0546900 deg
# Mono.scan_mode: pseudo channel cut
# Mono.scan_type: step
# Mono.direction: forward in energy
# Sample.x_position: -114.337 mm
# Sample.y_position: 94.906 mm
# Sample.name: CaTiSiO5 (sphene)
# Sample.prep: natural sample, ground, Powder on tape
# Scan.experimenters: Bruce Ravel
# Scan.edge_energy: 4966.0
# Scan.start_time: 2019-04-06T11:49:11
# Scan.end_time: 2019-04-06T12:09:05
# Scan.transient_id: 8259
# Scan.uid: 96eac8ae-50e3-4275-a0a9-26fd09de50a6
# Scan.plot_hint: ln(I0/It)  --  ln($5/$6)
# Scan.sequence: merge of 2 scans
# Column.1: energy eV
# Column.2: requested_energy eV
# Column.3: measurement_time seconds
# Column.4: mutrans
# Column.5: i0
# Column.6: itrans
# Column.7: irefer
# /////
# 
# -----
# energy   requested_energy   measurement_time   mutrans   i0   itrans   irefer
4865.992000 4866.000000 1.000000 2.396345 42.608589 3.879517 0.213476
4876.008000 4876.000000 1.000000 2.376920 43.448730 4.033625 0.226543
4886.008000 4886.000000 1.000000 2.356908 44.264438 4.192375 0.238585
4896.168000 4896.000000 1.000000 2.337753 45.148620 4.359531 0.249853
4906.001000 4906.000000 1.000000 2.318626 45.928226 4.519737 0.264126
4916.000000 4916.000000 1.000000 2.299456 46.777714 4.692417 0.277882
4926.003000 4926.000000 1.000000 2.280601 47.443411 4.849811 0.295917
4936.003000 4936.000000 1.000000 2.262466 47.820389 4.977795 0.303348
4938.007000 4938.000000 1.000000 2.258606 47.874422 5.002738 0.313194
4940.004000 4940.000000 1.000000 2.254884 47.885900 5.022581 0.307921
4942.002000 4942.000000 1.000000 2.251486 47.995106 5.051136 0.319354
4943.999000 4944.000000 1.000000 2.247604 48.016167 5.072980 0.315744
4945.999000 4946.000000 1.000000 2.244168 48.054062 5.094465 0.321179
4947.999000 4948.000000 1.000000 2.240634 48.061535 5.113304 0.318796
4950.002000 4950.000000 1.000000 2.236930 48.038878 5.129870 0.325590
4952.001000 4952.000000 1.000000 2.233226 48.044975 5.149563 0.319439
4953.999000 4954.000000 1.000000 2.230073 48.026255 5.163789 0.318340
4955.999000 4956.000000 1.000000 2.226702 47.994782 5.177822 0.320796
4956.244000 4956.250000 1.000000 2.225785 48.036820 5.187126 0.327870
4956.494000 4956.500000 1.000000 2.225540 48.061966 5.191130 0.326650
4956.744000 4956.750000 1.000000 2.225052 47.989776 5.185862 0.330941
4956.994000 4957.000000 1.000000 2.224658 48.069262 5.196503 0.326481
4957.243000 4957.250000 1.000000 2.224266 47.996382 5.190656 0.331058
4957.494000 4957.500000 1.000000 2.224011 48.010335 5.193492 0.329411
4957.743000 4957.750000 1.000000 2.223477 47.975504 5.192467 0.328146
4957.994000 4958.000000 1.000000 2.223021 47.990258 5.196449 0.328873
4958.244000 4958.250000 1.000000 2.222136 47.999901 5.202097 0.323504
4958.497000 4958.500000 1.000000 2.222096 47.961702 5.198187 0.328648
4958.748000 4958.750000 1.000000 2.221759 47.875440 5.190600 0.332441
4958.997000 4959.000000 1.000000 2.221471 47.978180 5.203221 0.326185
4959.249000 4959.250000 1.000000 2.220580 47.967449 5.206672 0.333257
4959.498000 4959.500000 1.000000 2.220639 47.917696 5.200975 0.330329
4959.747000 4959.750000 1.000000 2.220271 47.925244 5.203682 0.333015
4959.996000 4960.000000 1.000000 2.219463 47.970760 5.212839 0.329252
4960.248000 4960.250000 1.000000 2.219175 48.010581 5.218680 0.331180
4960.500000 4960.500000 1.000000 2.218531 47.933491 5.213679 0.330715
4960.750000 4960.750000 1.000000 2.218262 47.907114 5.212205 0.326388
4961.000000 4961.000000 1.000000 2.217973 47.955612 5.219003 0.332687
4961.248000 4961.250000 1.000000 2.217260 47.962896 5.223500 0.326109
4961.499000 4961.500000 1.000000 2.216537 47.957517 5.226694 0.328460
4961.747000 4961.750000 1.000000 2.216141 47.931267 5.225889 0.325553
4961.998000 4962.000000 1.000000 2.216373 47.957511 5.227555 0.322718
4962.250000 4962.250000 1.000000 2.215905 47.933750 5.227425 0.324350
4962.500000 4962.500000 1.000000 2.215177 47.971260 5.235324 0.328333
4962.753000 4962.750000 1.000000 2.214591 47.953176 5.236438 0.324491
4962.998000 4963.000000 1.000000 2.214323 47.971872 5.239828 0.319548
4963.250000 4963.250000 1.000000 2.213851 48.003901 5.245802 0.321067
4963.499000 4963.500000 1.000000 2.213508 47.991333 5.246233 0.316648
4963.750000 4963.750000 1.000000 2.213296 48.037752 5.252434 0.309288
4964.000000 4964.000000 1.000000 2.213078 47.994927 5.248893 0.298052
4964.252000 4964.250000 1.000000 2.212639 47.902873 5.241130 0.282235
4964.501000 4964.500000 1.000000 2.212471 47.842158 5.235360 0.261678
4964.750000 4964.750000 1.000000 2.212439 47.889555 5.240718 0.238877
4964.998000 4965.000000 1.000000 2.212038 47.860663 5.239651 0.224340
4965.251000 4965.250000 1.000000 2.211081 47.797866 5.237774 0.216466
4965.500000 4965.500000 1.000000 2.211249 47.764563 5.233271 0.219721
4965.751000 4965.750000 1.000000 2.210489 47.870835 5.248901 0.225939
4966.003000 4966.000000 1.000000 2.210573 47.859195 5.247177 0.235392
4966.249000 4966.250000 1.000000 2.210834 47.835923 5.243262 0.243186
4966.500000 4966.500000 1.000000 2.210694 47.896059 5.250585 0.244199
4966.749000 4966.750000 1.000000 2.210975 47.780219 5.236427 0.252517
4966.998000 4967.000000 1.000000 2.211603 47.816780 5.237143 0.253367
4967.251000 4967.250000 1.000000 2.211362 47.744887 5.230523 0.255744
4967.502000 4967.500000 1.000000 2.211426 47.808133 5.237107 0.248483
4967.753000 4967.750000 1.000000 2.211314 47.804102 5.237279 0.243752
4968.002000 4968.000000 1.000000 2.211558 47.795875 5.235075 0.237085
4968.249000 4968.250000 1.000000 2.211734 47.797878 5.234384 0.237843
4968.499000 4968.500000 1.000000 2.212788 47.740610 5.222633 0.228792
4968.754000 4968.750000 1.000000 2.214390 47.838024 5.224855 0.225585
4969.001000 4969.000000 1.000000 2.216613 47.764920 5.205236 0.219552
4969.254000 4969.250000 1.000000 2.218701 47.718486 5.189257 0.217040
4969.503000 4969.500000 1.000000 2.220069 47.675060 5.177607 0.219783
4969.750000 4969.750000 1.000000 2.219459 47.726990 5.186395 0.220993
4970.000000 4970.000000 1.000000 2.217188 47.853534 5.211910 0.214640
4970.247000 4970.250000 1.000000 2.214613 47.865231 5.226527 0.212092
4970.501000 4970.500000 1.000000 2.212299 47.869383 5.239265 0.213364
4970.752000 4970.750000 1.000000 2.210973 47.830726 5.241983 0.216177
4971.001000 4971.000000 1.000000 2.209611 47.910518 5.257928 0.212569
4971.252000 4971.250000 1.000000 2.208019 47.932054 5.268623 0.212077
4971.501000 4971.500000 1.000000 2.207026 47.812130 5.260624 0.207893
4971.748000 4971.750000 1.000000 2.205939 48.017970 5.289014 0.201620
4972.002000 4972.000000 1.000000 2.205391 47.936771 5.282982 0.202984
4972.250000 4972.250000 1.000000 2.205797 47.955486 5.282916 0.194887
4972.501000 4972.500000 1.000000 2.205447 47.913003 5.280076 0.191625
4972.754000 4972.750000 1.000000 2.205619 47.866966 5.274097 0.185774
4973.002000 4973.000000 1.000000 2.205663 47.912537 5.278882 0.178622
4973.251000 4973.250000 1.000000 2.206068 47.783777 5.262568 0.174421
4973.500000 4973.500000 1.000000 2.206265 47.829311 5.266547 0.175358
4973.748000 4973.750000 1.000000 2.206620 47.916137 5.274239 0.166673
4974.002000 4974.000000 1.000000 2.206784 47.823206 5.263136 0.163421
4974.253000 4974.250000 1.000000 2.207321 47.818609 5.259784 0.160734
4974.502000 4974.500000 1.000000 2.208096 47.831164 5.257099 0.157783
4974.752000 4974.750000 1.000000 2.208639 47.684885 5.238181 0.154015
4974.999000 4975.000000 1.000000 2.209807 47.701079 5.233870 0.156677
4975.248000 4975.250000 1.000000 2.210653 47.732762 5.232951 0.152159
4975.500000 4975.500000 1.000000 2.211658 47.685126 5.222389 0.145423
4975.751000 4975.750000 1.000000 2.212525 47.666408 5.215842 0.143516
4976.004000 4976.000000 1.000000 2.213172 47.648156 5.210434 0.141667
4976.253000 4976.250000 1.000000 2.214019 47.551688 5.195486 0.139203
4976.500000 4976.500000 1.000000 2.214825 47.485374 5.184132 0.134782
4976.752000 4976.750000 1.000000 2.215483 47.541275 5.186796 0.132852
4976.999000 4977.000000 1.000000 2.216744 47.480539 5.173675 0.130456
4977.252000 4977.250000 1.000000 2.217961 47.482417 5.167546 0.129790
4977.501000 4977.500000 1.000000 2.218850 47.534836 5.168641 0.122465
4977.752000 4977.750000 1.000000 2.220257 47.462171 5.153471 0.119348
4978.002000 4978.000000 1.000000 2.222604 47.437675 5.138697 0.122029
4978.252000 4978.250000 1.000000 2.224652 47.456643 5.130260 0.120185
4978.500000 4978.500000 1.000000 2.226821 47.450761 5.118606 0.120854
4978.749000 4978.750000 1.000000 2.229401 47.423206 5.102515 0.123310
4979.001000 4979.000000 1.000000 2.231427 47.391784 5.088665 0.120355
4979.252000 4979.250000 1.000000 2.234131 47.362040 5.071734 0.116863
4979.504000 4979.500000 1.000000 2.235717 47.320215 5.059159 0.117294
4979.754000 4979.750000 1.000000 2.237914 47.296573 5.045536 0.116149
4980.002000 4980.000000 1.000000 2.239480 47.309088 5.039056 0.116466
4980.252000 4980.250000 1.000000 2.241357 47.337157 5.032629 0.113897
4980.499000 4980.500000 1.000000 2.244013 47.274161 5.012694 0.113487
4980.753000 4980.750000 1.000000 2.247330 47.222223 4.990494 0.112840
4981.001000 4981.000000 1.000000 2.251243 47.140236 4.962328 0.112265
4981.252000 4981.250000 1.000000 2.256162 47.241803 4.948663 0.108535
4981.502000 4981.500000 1.000000 2.261459 47.141911 4.912000 0.111468
4981.753000 4981.750000 1.000000 2.267206 47.187377 4.888520 0.106988
4981.998000 4982.000000 1.000000 2.272604 47.112174 4.854865 0.107673
4982.251000 4982.250000 1.000000 2.278448 47.138291 4.829111 0.106927
4982.498000 4982.500000 1.000000 2.284255 47.185083 4.806136 0.106379
4982.752000 4982.750000 1.000000 2.289171 47.135701 4.777039 0.106017
4983.001000 4983.000000 1.000000 2.294364 47.103961 4.749286 0.104269
4983.253000 4983.250000 1.000000 2.298013 47.129018 4.734360 0.103451
4983.500000 4983.500000 1.000000 2.301708 47.147931 4.719015 0.108623
4983.752000 4983.750000 1.000000 2.304380 47.092712 4.700830 0.104774
4983.998000 4984.000000 1.000000 2.306100 47.062377 4.689782 0.098280
4984.251000 4984.250000 1.000000 2.307174 47.095493 4.688021 0.095741
4984.500000 4984.500000 1.000000 2.308747 47.051299 4.676233 0.104402
4984.754000 4984.750000 1.000000 2.309019 47.009942 4.670852 0.110235
4985.000000 4985.000000 1.000000 2.309029 47.015665 4.671376 0.107075
4985.251000 4985.250000 1.000000 2.308959 47.004134 4.670558 0.108358
4985.500000 4985.500000 1.000000 2.308953 46.971020 4.667294 0.102363
4985.751000 4985.750000 1.000000 2.309620 47.009179 4.667990 0.105928
4985.997000 4986.000000 1.000000 2.309651 47.030859 4.669970 0.102161
4986.251000 4986.250000 1.000000 2.310086 47.018124 4.666663 0.111439
4986.502000 4986.500000 1.000000 2.310782 46.909514 4.652661 0.109230
4986.753000 4986.750000 1.000000 2.310665 46.912152 4.653499 0.104854
4987.003000 4987.000000 1.000000 2.309339 46.921903 4.660609 0.111499
4987.250000 4987.250000 1.000000 2.308234 46.803124 4.653922 0.102462
4987.501000 4987.500000 1.000000 2.306104 46.813582 4.664894 0.105773
4987.750000 4987.750000 1.000000 2.303469 46.847588 4.680576 0.107764
4988.001000 4988.000000 1.000000 2.300569 46.925433 4.702007 0.115548
4988.250000 4988.250000 1.000000 2.297617 47.055323 4.728994 0.110702
4988.504000 4988.500000 1.000000 2.295161 47.059197 4.741066 0.109634
4988.753000 4988.750000 1.000000 2.293058 47.031243 4.748203 0.111117
4989.002000 4989.000000 1.000000 2.290966 47.123814 4.767468 0.110901
4989.248000 4989.250000 1.000000 2.289267 47.149754 4.778098 0.112212
4989.501000 4989.500000 1.000000 2.287298 47.207461 4.793481 0.110417
4989.751000 4989.750000 1.000000 2.286468 47.345359 4.811472 0.109587
4990.004000 4990.000000 1.000000 2.285317 47.342966 4.816780 0.113859
4990.253000 4990.250000 1.000000 2.284759 47.328244 4.817960 0.111663
4990.503000 4990.500000 1.000000 2.283950 47.350891 4.824176 0.115658
4990.752000 4990.750000 1.000000 2.283215 47.469623 4.839810 0.115937
4991.002000 4991.000000 1.000000 2.283055 47.387989 4.832257 0.116897
4991.248000 4991.250000 1.000000 2.282509 47.422967 4.838456 0.109402
4991.501000 4991.500000 1.000000 2.281946 47.472026 4.846194 0.115983
4991.751000 4991.750000 1.000000 2.281332 47.490284 4.851046 0.116666
4992.005000 4992.000000 1.000000 2.280965 47.476963 4.851493 0.116502
4992.251000 4992.250000 1.000000 2.280514 47.435908 4.849460 0.113208
4992.501000 4992.500000 1.000000 2.280412 47.529716 4.859539 0.115694
4992.752000 4992.750000 1.000000 2.280221 47.440569 4.851347 0.116410
4993.001000 4993.000000 1.000000 2.279949 47.575708 4.866493 0.117838
4993.249000 4993.250000 1.000000 2.280260 47.462722 4.853441 0.116941
4993.500000 4993.500000 1.000000 2.281252 47.503431 4.852771 0.115314
4993.753000 4993.750000 1.000000 2.281544 47.564476 4.857595 0.119355
4994.004000 4994.000000 1.000000 2.282534 47.592697 4.855618 0.116049
4994.252000 4994.250000 1.000000 2.283740 47.512011 4.841617 0.114544
4994.501000 4994.500000 1.000000 2.284725 47.570772 4.842804 0.119637
4994.749000 4994.750000 1.000000 2.285951 47.499981 4.829720 0.118641
4995.001000 4995.000000 1.000000 2.286725 47.554135 4.831444 0.113334
4995.249000 4995.250000 1.000000 2.287448 47.527117 4.825209 0.117559
4995.502000 4995.500000 1.000000 2.288346 47.524383 4.820596 0.111587
4995.751000 4995.750000 1.000000 2.288408 47.567449 4.824661 0.111381
4996.003000 4996.000000 1.000000 2.288875 47.610954 4.826817 0.113196
4998.013000 4998.000000 1.000000 2.289565 47.493489 4.811594 0.106491
5000.003000 5000.000000 1.000000 2.285233 47.519392 4.835105 0.101468
5002.006000 5002.000000 1.000000 2.276264 47.731546 4.900465 0.109720
5004.006000 5004.000000 1.000000 2.265281 47.755462 4.957069 0.107180
5006.008000 5006.000000 1.000000 2.252948 47.900077 5.033793 0.113212
5008.007000 5008.000000 1.000000 2.242561 48.102753 5.107861 0.121099
5010.007000 5010.000000 1.000000 2.233354 48.187929 5.164223 0.128607
5012.005000 5012.000000 1.000000 2.225849 48.325691 5.217999 0.132101
5014.004000 5014.000000 1.000000 2.220691 48.334991 5.245996 0.134049
5016.004000 5016.000000 1.000000 2.217121 48.384521 5.270153 0.142464
5018.005000 5018.000000 1.000000 2.214974 48.511994 5.295409 0.145438
5020.009000 5020.000000 1.000000 2.211809 48.578017 5.319433 0.142987
5022.007000 5022.000000 1.000000 2.207336 48.733903 5.360419 0.144895
5024.005000 5024.000000 1.000000 2.203871 48.903450 5.397727 0.143249
5026.007000 5026.000000 1.000000 2.200592 48.975360 5.423422 0.146420
5028.007000 5028.000000 1.000000 2.196806 49.066386 5.454102 0.146884
5030.006000 5030.000000 1.000000 2.193128 49.205651 5.489743 0.143548
5032.006000 5032.000000 1.000000 2.189734 49.210353 5.508932 0.142853
5034.006000 5034.000000 1.000000 2.186415 49.408674 5.549523 0.137292
5036.006000 5036.000000 1.000000 2.182893 49.455532 5.574386 0.132618
5038.005000 5038.000000 1.000000 2.180274 49.546685 5.599292 0.131985
5040.005000 5040.000000 1.000000 2.178324 49.700809 5.627683 0.132987
5042.006000 5042.000000 1.000000 2.176442 49.830921 5.653044 0.136726
5044.005000 5044.000000 1.000000 2.175066 49.971892 5.676844 0.139124
5046.004000 5046.000000 1.000000 2.172856 49.995537 5.692082 0.138943
5048.006000 5048.000000 1.000000 2.170481 50.109549 5.718637 0.152251
5050.006000 5050.000000 1.000000 2.167955 50.196690 5.743074 0.152294
5052.003000 5052.000000 1.000000 2.165361 50.246799 5.763732 0.157692
5054.005000 5054.000000 1.000000 2.162179 50.438366 5.804158 0.162441
5056.006000 5056.000000 1.000000 2.158795 50.594849 5.841903 0.166473
5058.006000 5058.000000 1.000000 2.156003 50.648654 5.864463 0.168041
5060.004000 5060.000000 1.000000 2.152388 50.724988 5.894557 0.164485
5062.004000 5062.000000 1.000000 2.148467 50.776124 5.923694 0.167090
5064.007000 5064.000000 1.000000 2.144623 51.010186 5.973938 0.178340
5066.007000 5066.000000 1.000000 2.140672 51.012360 5.997840 0.180250
5068.006000 5068.000000 1.000000 2.136651 51.220131 6.046526 0.182119
5070.007000 5070.000000 1.000000 2.131975 51.426673 6.099357 0.181105
5072.005000 5072.000000 1.000000 2.127533 51.451117 6.129421 0.181087
5074.007000 5074.000000 1.000000 2.123142 51.621608 6.176795 0.180504
5076.004000 5076.000000 1.000000 2.119008 51.690311 6.210617 0.183703
5078.005000 5078.000000 1.000000 2.115287 51.830509 6.250695 0.186760
5080.005000 5080.000000 1.000000 2.111504 51.952804 6.289185 0.183848
5082.006000 5082.000000 1.000000 2.107360 52.137552 6.337772 0.178173
5084.008000 5084.000000 1.000000 2.103181 52.250843 6.378134 0.181887
5086.008000 5086.000000 1.000000 2.099384 52.367546 6.416719 0.184536
5088.006000 5088.000000 1.000000 2.095441 52.400574 6.446113 0.170623
5090.005000 5090.000000 1.000000 2.091357 52.605082 6.497748 0.174109
5092.008000 5092.000000 1.000000 2.087804 52.646453 6.526021 0.175345
5094.005000 5094.000000 1.000000 2.084092 52.704018 6.557430 0.178763
5096.004000 5096.000000 1.000000 2.080491 52.745281 6.586233 0.190056
5098.006000 5098.000000 1.000000 2.077632 52.935240 6.628890 0.196278
5100.005000 5100.000000 1.000000 2.074813 52.995436 6.655165 0.202778
5102.004000 5102.000000 1.000000 2.071765 53.125090 6.691811 0.215798
5104.004000 5104.000000 1.000000 2.068579 53.089105 6.708632 0.216291
5106.008000 5106.000000 1.000000 2.065438 53.333042 6.760675 0.216750
5108.006000 5108.000000 1.000000 2.061913 53.346269 6.786208 0.220588
5110.005000 5110.000000 1.000000 2.058479 53.506190 6.829966 0.217317
5112.006000 5112.000000 1.000000 2.055379 53.635112 6.867683 0.219838
5114.005000 5114.000000 1.000000 2.051798 53.703625 6.901129 0.219596
5116.007000 5116.000000 1.000000 2.048197 53.787677 6.936875 0.232265
5118.006000 5118.000000 1.000000 2.044685 53.865801 6.971370 0.226458
5120.007000 5120.000000 1.000000 2.041424 53.947842 7.004801 0.233258
5122.008000 5122.000000 1.000000 2.038314 54.061832 7.041474 0.233966
5124.005000 5124.000000 1.000000 2.035380 54.097300 7.066783 0.231705
5126.006000 5126.000000 1.000000 2.032214 54.196529 7.102200 0.235233
5128.006000 5128.000000 1.000000 2.029530 54.321495 7.137703 0.241717
5130.009000 5130.000000 1.000000 2.026454 54.375587 7.166820 0.242914
5132.005000 5132.000000 1.000000 2.023222 54.462398 7.201495 0.238909
5134.004000 5134.000000 1.000000 2.019748 54.568787 7.240664 0.247373
5136.003000 5136.000000 1.000000 2.016352 54.675626 7.279501 0.244263
5138.005000 5138.000000 1.000000 2.012635 54.792960 7.322313 0.252722
5140.003000 5140.000000 1.000000 2.009536 54.820037 7.348647 0.243671
5142.003000 5142.000000 1.000000 2.006074 54.894121 7.384094 0.246585
5144.005000 5144.000000 1.000000 2.002914 54.996449 7.421290 0.246843
5146.004000 5146.000000 1.000000 1.999372 55.066495 7.457115 0.249089
5148.004000 5148.000000 1.000000 1.996189 55.041688 7.477520 0.245919
5150.006000 5150.000000 1.000000 1.992592 55.140225 7.517900 0.252559
5152.005000 5152.000000 1.000000 1.989391 55.352698 7.571055 0.250162
5154.004000 5154.000000 1.000000 1.986463 55.383051 7.597420 0.252179
5156.003000 5156.000000 1.000000 1.982676 55.517180 7.644730 0.259211
5158.003000 5158.000000 1.000000 1.979119 55.521670 7.672561 0.263983
5160.002000 5160.000000 1.000000 1.975738 55.564943 7.704571 0.270316
5162.003000 5162.000000 1.000000 1.972141 55.721997 7.754206 0.268775
5164.002000 5164.000000 1.000000 1.968785 55.761420 7.785765 0.274427
