# XDI/1.0 BlueSky/1.5.0
# Beamline.name: 6BM
# Beamline.xray_source: NSLS-II three-pole wiggler
# Beamline.collimation: paraboloid mirror, 5 nm Rh on 30 nm Pt
# Beamline.focusing: not in use
# Beamline.harmonic_rejection: flat mirror, Si stripe, pitch = 7.0 mrad relative to beam
# Detector.i0: 10 cm N2
# Detector.i1: 25 cm N2
# Detector.i2: 25 cm N2
# Element.symbol: Ti
# Element.edge: K
# Facility.name: NSLS-II
# Facility.energy: 3.0
# Facility.current: 219.7
# Facility.mode: top-off
# Facility.gup: 301027
# Facility.saf: 304156
# Mono.name: Si(111)
# Mono.d_spacing: 3.1353241
# Mono.encoder_resolution: 0.0000050 deg/ct
# Mono.angle_offset: 16.0576931 deg
# Mono.scan_mode: pseudo channel cut
# Mono.scan_type: step
# Mono.direction: forward in energy
# Sample.name: EuTiO3 perovskite
# Sample.prep: powder on tape
# Sample.x_position: -97.500 mm
# Sample.y_position: 115.250 mm
# Sample.wheel_position: 15.000 mm
# Scan.experimenters: Bruce Ravel
# Scan.edge_energy: 4966.0
# Scan.start_time: 2019-06-16T18:11:49
# Scan.end_time: 2019-06-16T20:38:50
# Scan.transient_id: 10630
# Scan.uid: 4e553338-dff6-46a6-ad8a-cdfee4f3e69d
# Scan.plot_hint: ln(I0/It)  --  ln($5/$6)
# Scan.sequence: merge of 9 scans
# Column.1: energy eV
# Column.2: requested_energy eV
# Column.3: measurement_time seconds
# Column.4: mutrans
# Column.5: i0
# Column.6: itrans
# Column.7: irefer
# /////
#  from Fatih Dogan, 1993
# -----
# energy   requested_energy   measurement_time   mutrans   i0   itrans   irefer
4765.994000 4766.000000 0.500000 2.835704 8.449051 0.495768 0.033460
4776.005000 4776.000000 0.500000 2.813994 8.651814 0.518802 0.035737
4786.009000 4786.000000 0.500000 2.792821 8.866882 0.543080 0.037946
4796.007000 4796.000000 0.500000 2.771439 9.081480 0.568244 0.040428
4806.006000 4806.000000 0.500000 2.750357 9.299916 0.594309 0.043088
4816.007000 4816.000000 0.500000 2.729166 9.513277 0.620967 0.045674
4826.005000 4826.000000 0.500000 2.708426 9.728670 0.648331 0.048500
4836.004000 4836.000000 0.500000 2.687651 9.935626 0.675935 0.051519
4846.109000 4846.000000 0.500000 2.667678 10.153870 0.704956 0.054512
4855.995000 4856.000000 0.500000 2.647162 10.378585 0.735327 0.057869
4866.002000 4866.000000 0.500000 2.626791 10.600815 0.766537 0.061327
4876.007000 4876.000000 0.500000 2.607098 10.825813 0.798390 0.064906
4886.002000 4886.000000 0.500000 2.587120 11.053535 0.831625 0.068754
4896.004000 4896.000000 0.500000 2.567660 11.292381 0.866291 0.072768
4906.007000 4906.000000 0.500000 2.548098 11.522269 0.901396 0.076826
4916.000000 4916.000000 0.500000 2.529040 11.752248 0.937070 0.081131
4926.001000 4926.000000 0.500000 2.509974 11.988422 0.974302 0.085701
4936.000000 4936.000000 0.500000 2.490881 12.215072 1.011859 0.090264
4937.997000 4938.000000 0.500000 2.487120 12.259232 1.019344 0.091203
4939.994000 4940.000000 0.500000 2.483457 12.305422 1.026922 0.092136
4942.005000 4942.000000 0.500000 2.479667 12.353747 1.034887 0.093115
4944.003000 4944.000000 0.500000 2.475838 12.403355 1.043026 0.094253
4946.004000 4946.000000 0.500000 2.472068 12.442660 1.050293 0.094948
4947.998000 4948.000000 0.500000 2.468334 12.476808 1.057105 0.095878
4949.996000 4950.000000 0.500000 2.464703 12.523460 1.064918 0.096718
4951.997000 4952.000000 0.500000 2.461213 12.561830 1.071917 0.097728
4953.995000 4954.000000 0.500000 2.457466 12.602422 1.079415 0.098412
4955.997000 4956.000000 0.500000 2.453638 12.640515 1.086831 0.099469
4956.246000 4956.250000 0.500000 2.453194 12.643450 1.087569 0.099307
4956.494000 4956.500000 0.500000 2.452789 12.650286 1.088596 0.099658
4956.743000 4956.750000 0.500000 2.452202 12.653211 1.089486 0.099721
4956.994000 4957.000000 0.500000 2.451801 12.656022 1.090168 0.099780
4957.244000 4957.250000 0.500000 2.451455 12.673406 1.092043 0.099637
4957.493000 4957.500000 0.500000 2.451121 12.678807 1.092871 0.099924
4957.744000 4957.750000 0.500000 2.450543 12.682864 1.093855 0.100035
4957.995000 4958.000000 0.500000 2.450125 12.688091 1.094764 0.100182
4958.244000 4958.250000 0.500000 2.449699 12.691427 1.095516 0.100187
4958.496000 4958.500000 0.500000 2.449115 12.695633 1.096522 0.100354
4958.746000 4958.750000 0.500000 2.448790 12.702110 1.097437 0.100356
4958.997000 4959.000000 0.500000 2.448238 12.703763 1.098187 0.100322
4959.246000 4959.250000 0.500000 2.447840 12.707224 1.098924 0.100574
4959.496000 4959.500000 0.500000 2.447416 12.724899 1.100919 0.100732
4959.746000 4959.750000 0.500000 2.446956 12.729950 1.101864 0.100746
4959.995000 4960.000000 0.500000 2.446453 12.734078 1.102773 0.100675
4960.245000 4960.250000 0.500000 2.446057 12.739555 1.103683 0.100825
4960.495000 4960.500000 0.500000 2.445615 12.743558 1.104520 0.100836
4960.745000 4960.750000 0.500000 2.445202 12.750398 1.105567 0.100917
4960.996000 4961.000000 0.500000 2.444713 12.754191 1.106438 0.100876
4961.247000 4961.250000 0.500000 2.444138 12.758996 1.107494 0.100923
4961.494000 4961.500000 0.500000 2.443722 12.761705 1.108187 0.100899
4961.748000 4961.750000 0.500000 2.443415 12.768349 1.109110 0.100813
4961.994000 4962.000000 0.500000 2.442937 12.773241 1.110059 0.100790
4962.245000 4962.250000 0.500000 2.442604 12.779627 1.110986 0.100628
4962.497000 4962.500000 0.500000 2.442120 12.784862 1.111981 0.100495
4962.746000 4962.750000 0.500000 2.441491 12.790127 1.113134 0.100194
4962.998000 4963.000000 0.500000 2.441262 12.794402 1.113763 0.099811
4963.246000 4963.250000 0.500000 2.440876 12.799014 1.114594 0.099395
4963.496000 4963.500000 0.500000 2.440364 12.805669 1.115745 0.098645
4963.748000 4963.750000 0.500000 2.439929 12.821687 1.117629 0.097296
4963.995000 4964.000000 0.500000 2.439666 12.828957 1.118554 0.095592
4964.247000 4964.250000 0.500000 2.439160 12.830603 1.119266 0.092625
4964.498000 4964.500000 0.500000 2.438804 12.844769 1.120900 0.087888
4964.747000 4964.750000 0.500000 2.438469 12.849503 1.121686 0.081283
4965.000000 4965.000000 0.500000 2.438030 12.854989 1.122662 0.074832
4965.249000 4965.250000 0.500000 2.437533 12.859138 1.123583 0.070502
4965.501000 4965.500000 0.500000 2.437200 12.863400 1.124329 0.068731
4965.745000 4965.750000 0.500000 2.437231 12.869971 1.124868 0.069367
4965.999000 4966.000000 0.500000 2.436899 12.873555 1.125556 0.071587
4966.251000 4966.250000 0.500000 2.436812 12.877691 1.126013 0.074458
4966.499000 4966.500000 0.500000 2.436908 12.882076 1.126288 0.076990
4966.751000 4966.750000 0.500000 2.437473 12.882934 1.125727 0.078574
4967.001000 4967.000000 0.500000 2.437999 12.886222 1.125422 0.079259
4967.249000 4967.250000 0.500000 2.438365 12.889719 1.125319 0.079454
4967.500000 4967.500000 0.500000 2.437601 12.894194 1.126575 0.079140
4967.747000 4967.750000 0.500000 2.436994 12.899103 1.127683 0.078209
4968.000000 4968.000000 0.500000 2.436309 12.904037 1.128886 0.077139
4968.246000 4968.250000 0.500000 2.436328 12.908383 1.129245 0.075840
4968.497000 4968.500000 0.500000 2.437115 12.912403 1.128717 0.074408
4968.751000 4968.750000 0.500000 2.438627 12.913940 1.127133 0.072917
4968.998000 4969.000000 0.500000 2.440520 12.916860 1.125280 0.071920
4969.252000 4969.250000 0.500000 2.441724 12.919772 1.124158 0.070911
4969.497000 4969.500000 0.500000 2.441983 12.930998 1.124847 0.070388
4969.748000 4969.750000 0.500000 2.440874 12.932100 1.126187 0.069827
4969.999000 4970.000000 0.500000 2.439404 12.937605 1.128322 0.069570
4970.250000 4970.250000 0.500000 2.438471 12.947015 1.130201 0.069391
4970.499000 4970.500000 0.500000 2.438050 12.958842 1.131707 0.069250
4970.753000 4970.750000 0.500000 2.437831 12.976076 1.133459 0.069132
4971.000000 4971.000000 0.500000 2.438132 12.982507 1.133685 0.068620
4971.252000 4971.250000 0.500000 2.438612 12.989287 1.133715 0.067930
4971.498000 4971.500000 0.500000 2.439742 12.997327 1.133152 0.066990
4971.749000 4971.750000 0.500000 2.441228 13.003158 1.131967 0.065852
4972.001000 4972.000000 0.500000 2.442820 13.008156 1.130607 0.064342
4972.250000 4972.250000 0.500000 2.444302 13.010428 1.129138 0.062970
4972.499000 4972.500000 0.500000 2.445836 13.014974 1.127806 0.061621
4972.753000 4972.750000 0.500000 2.446715 13.017800 1.127046 0.060069
4973.001000 4973.000000 0.500000 2.447319 13.022764 1.126798 0.058816
4973.248000 4973.250000 0.500000 2.447653 13.026883 1.126778 0.057544
4973.499000 4973.500000 0.500000 2.447564 13.029236 1.127081 0.056379
4973.748000 4973.750000 0.500000 2.447459 13.044068 1.128483 0.055147
4974.001000 4974.000000 0.500000 2.447084 13.048222 1.129265 0.054166
4974.250000 4974.250000 0.500000 2.446569 13.050466 1.130038 0.053227
4974.504000 4974.500000 0.500000 2.445685 13.054291 1.131381 0.052372
4974.751000 4974.750000 0.500000 2.444643 13.056149 1.132713 0.051276
4975.002000 4975.000000 0.500000 2.443575 13.057421 1.134040 0.050392
4975.246000 4975.250000 0.500000 2.442458 13.057556 1.135304 0.049458
4975.500000 4975.500000 0.500000 2.441401 13.058302 1.136577 0.048520
4975.750000 4975.750000 0.500000 2.440726 13.060094 1.137500 0.047562
4976.002000 4976.000000 0.500000 2.440108 13.061881 1.138359 0.046785
4976.251000 4976.250000 0.500000 2.439992 13.062608 1.138556 0.045945
4976.501000 4976.500000 0.500000 2.439922 13.061387 1.138530 0.045314
4976.750000 4976.750000 0.500000 2.440038 13.062457 1.138493 0.044480
4977.001000 4977.000000 0.500000 2.440419 13.064781 1.138259 0.043881
4977.249000 4977.250000 0.500000 2.440894 13.067966 1.137998 0.043372
4977.498000 4977.500000 0.500000 2.441403 13.069373 1.137547 0.042781
4977.753000 4977.750000 0.500000 2.442511 13.072372 1.136526 0.042349
4978.002000 4978.000000 0.500000 2.444022 13.088390 1.136216 0.041900
4978.252000 4978.250000 0.500000 2.445530 13.092844 1.134878 0.041694
4978.499000 4978.500000 0.500000 2.447772 13.095029 1.132549 0.041108
4978.749000 4978.750000 0.500000 2.450622 13.096234 1.129424 0.040816
4978.999000 4979.000000 0.500000 2.453760 13.096382 1.125901 0.040370
4979.251000 4979.250000 0.500000 2.457346 13.097412 1.121937 0.040130
4979.502000 4979.500000 0.500000 2.461435 13.097458 1.117359 0.039735
4979.751000 4979.750000 0.500000 2.466100 13.096126 1.112082 0.039371
4980.000000 4980.000000 0.500000 2.470865 13.093151 1.106555 0.039063
4980.253000 4980.250000 0.500000 2.476227 13.091478 1.100440 0.038661
4980.500000 4980.500000 0.500000 2.481873 13.090802 1.094212 0.038387
4980.749000 4980.750000 0.500000 2.488174 13.092486 1.087502 0.038099
4981.002000 4981.000000 0.500000 2.495292 13.104112 1.080670 0.037573
4981.253000 4981.250000 0.500000 2.502844 13.109115 1.072952 0.037121
4981.502000 4981.500000 0.500000 2.511563 13.108770 1.063634 0.036833
4981.752000 4981.750000 0.500000 2.521549 13.110738 1.053250 0.036322
4982.002000 4982.000000 0.500000 2.532129 13.114071 1.042395 0.035597
4982.252000 4982.250000 0.500000 2.543362 13.118967 1.031079 0.035302
4982.500000 4982.500000 0.500000 2.555265 13.123365 1.019259 0.034736
4982.748000 4982.750000 0.500000 2.567498 13.126718 1.007269 0.034253
4983.003000 4983.000000 0.500000 2.578748 13.126481 0.995828 0.033753
4983.252000 4983.250000 0.500000 2.588386 13.127146 0.986400 0.033310
4983.503000 4983.500000 0.500000 2.596567 13.127209 0.978344 0.033092
4983.752000 4983.750000 0.500000 2.601913 13.130085 0.973362 0.033032
4984.003000 4984.000000 0.500000 2.605108 13.130628 0.970286 0.032872
4984.249000 4984.250000 0.500000 2.606068 13.142372 0.970231 0.032961
4984.499000 4984.500000 0.500000 2.606023 13.143249 0.970338 0.033079
4984.749000 4984.750000 0.500000 2.604174 13.145430 0.972278 0.033256
4985.003000 4985.000000 0.500000 2.601976 13.147798 0.974614 0.033500
4985.254000 4985.250000 0.500000 2.599105 13.152178 0.977751 0.033716
4985.504000 4985.500000 0.500000 2.595497 13.154354 0.981466 0.034253
4985.750000 4985.750000 0.500000 2.591369 13.157418 0.985700 0.034508
4986.002000 4986.000000 0.500000 2.586829 13.159388 0.990383 0.034832
4986.251000 4986.250000 0.500000 2.582054 13.160769 0.995201 0.035142
4986.500000 4986.500000 0.500000 2.577398 13.158605 0.999673 0.035566
4986.750000 4986.750000 0.500000 2.572891 13.156443 1.004003 0.035882
4987.003000 4987.000000 0.500000 2.569120 13.157128 1.007880 0.036039
4987.251000 4987.250000 0.500000 2.566310 13.156494 1.010649 0.036273
4987.503000 4987.500000 0.500000 2.564135 13.168098 1.013760 0.036401
4987.748000 4987.750000 0.500000 2.562400 13.171009 1.015724 0.036595
4988.001000 4988.000000 0.500000 2.561240 13.173213 1.017091 0.036666
4988.249000 4988.250000 0.500000 2.560432 13.181283 1.018534 0.036745
4988.501000 4988.500000 0.500000 2.559694 13.189569 1.019929 0.036738
4988.751000 4988.750000 0.500000 2.558983 13.200290 1.021483 0.037004
4989.001000 4989.000000 0.500000 2.558402 13.209974 1.022826 0.036869
4989.252000 4989.250000 0.500000 2.557156 13.222342 1.025062 0.036955
4989.500000 4989.500000 0.500000 2.556430 13.233988 1.026704 0.037061
4989.749000 4989.750000 0.500000 2.555613 13.245489 1.028437 0.037197
4990.001000 4990.000000 0.500000 2.554881 13.258121 1.030175 0.037385
4990.249000 4990.250000 0.500000 2.554804 13.271426 1.031288 0.037443
4990.502000 4990.500000 0.500000 2.555038 13.282856 1.031934 0.037444
4990.751000 4990.750000 0.500000 2.555904 13.293133 1.031843 0.037398
4991.002000 4991.000000 0.500000 2.557440 13.305117 1.031189 0.037583
4991.252000 4991.250000 0.500000 2.558928 13.314499 1.030376 0.037603
4991.499000 4991.500000 0.500000 2.561014 13.323391 1.028932 0.037686
4991.748000 4991.750000 0.500000 2.563128 13.333603 1.027546 0.037719
4991.999000 4992.000000 0.500000 2.565205 13.351920 1.026812 0.037510
4992.252000 4992.250000 0.500000 2.566925 13.374015 1.026736 0.037553
4992.501000 4992.500000 0.500000 2.568384 13.377954 1.025546 0.037605
4992.753000 4992.750000 0.500000 2.569275 13.386583 1.025292 0.037616
4993.001000 4993.000000 0.500000 2.569671 13.392565 1.025345 0.037729
4993.252000 4993.250000 0.500000 2.569967 13.400031 1.025613 0.037614
4993.498000 4993.500000 0.500000 2.569749 13.404402 1.026169 0.037572
4993.751000 4993.750000 0.500000 2.569463 13.408313 1.026769 0.037509
4994.001000 4994.000000 0.500000 2.568443 13.414938 1.028320 0.037737
4994.253000 4994.250000 0.500000 2.567649 13.418328 1.029402 0.037650
4994.502000 4994.500000 0.500000 2.566352 13.423793 1.031147 0.037663
4994.752000 4994.750000 0.500000 2.565244 13.426849 1.032527 0.037416
4995.004000 4995.000000 0.500000 2.563849 13.430518 1.034263 0.037513
4995.249000 4995.250000 0.500000 2.562716 13.434245 1.035699 0.037208
4995.500000 4995.500000 0.500000 2.561605 13.439639 1.037279 0.037130
4995.751000 4995.750000 0.500000 2.560446 13.458961 1.039980 0.037086
4996.003000 4996.000000 0.700000 2.559566 18.817100 1.455283 0.051662
4997.092000 4997.080000 0.710000 2.558372 19.108628 1.479592 0.050884
4998.188000 4998.180000 0.730000 2.558962 19.681147 1.523034 0.051095
4999.295000 4999.290000 0.740000 2.556653 19.978563 1.549619 0.051376
5000.436000 5000.430000 0.750000 2.552066 20.288432 1.580879 0.052246
5001.590000 5001.580000 0.760000 2.547771 20.608503 1.612749 0.053630
5002.765000 5002.760000 0.780000 2.544390 21.199783 1.664623 0.055810
5003.957000 5003.950000 0.790000 2.540341 21.527325 1.697207 0.057068
5005.167000 5005.160000 0.800000 2.533843 21.861264 1.734774 0.059027
5006.396000 5006.390000 0.810000 2.523869 22.196340 1.779041 0.062129
5007.646000 5007.640000 0.830000 2.513198 22.804721 1.847370 0.066386
5008.919000 5008.910000 0.840000 2.504011 23.133857 1.891373 0.069766
5010.206000 5010.200000 0.850000 2.495700 23.465873 1.934514 0.072728
5011.514000 5011.510000 0.860000 2.490625 23.796855 1.971760 0.074988
5012.838000 5012.830000 0.880000 2.486514 24.410936 2.031005 0.077939
5014.186000 5014.180000 0.890000 2.480225 24.734292 2.070874 0.080190
5015.546000 5015.540000 0.900000 2.473957 25.073162 2.112449 0.082422
5016.934000 5016.930000 0.910000 2.469676 25.406542 2.149698 0.084829
5018.334000 5018.330000 0.930000 2.466224 26.025048 2.209647 0.088203
5019.757000 5019.750000 0.940000 2.461997 26.369760 2.248422 0.090345
5021.194000 5021.190000 0.950000 2.456932 26.712523 2.289202 0.092806
5022.653000 5022.650000 0.960000 2.453045 27.054156 2.327494 0.094696
5024.136000 5024.130000 0.980000 2.451276 27.683300 2.385841 0.097373
5025.635000 5025.630000 0.990000 2.451621 28.053616 2.416924 0.098226
5027.145000 5027.140000 1.000000 2.452307 28.408111 2.445786 0.099011
5028.683000 5028.680000 1.010000 2.452020 28.759159 2.476721 0.099743
5030.240000 5030.240000 1.030000 2.450367 29.391232 2.535333 0.100772
5031.813000 5031.810000 1.040000 2.447305 29.746615 2.573858 0.100271
5033.403000 5033.400000 1.050000 2.444006 30.103389 2.613340 0.099732
5035.014000 5035.010000 1.060000 2.441047 30.465343 2.652602 0.099226
5036.656000 5036.650000 1.080000 2.439134 31.114517 2.714312 0.099879
5038.302000 5038.300000 1.090000 2.439322 31.485375 2.746152 0.100244
5039.974000 5039.970000 1.100000 2.440825 31.855693 2.774283 0.101201
5041.658000 5041.650000 1.110000 2.440742 32.253698 2.809174 0.102883
5043.366000 5043.360000 1.130000 2.438172 32.915897 2.874254 0.106578
5045.090000 5045.090000 1.140000 2.433803 33.293253 2.919896 0.109774
5046.830000 5046.830000 1.150000 2.428363 33.667814 2.968888 0.113788
5048.607000 5048.600000 1.160000 2.423532 34.051293 3.017264 0.118535
5050.376000 5050.380000 1.180000 2.421432 34.727083 3.083569 0.124097
5052.176000 5052.180000 1.190000 2.420931 35.112782 3.119375 0.128502
5053.993000 5054.000000 1.200000 2.421578 35.506159 3.152288 0.132375
5055.832000 5055.840000 1.210000 2.422954 35.901613 3.183019 0.135319
5057.693000 5057.700000 1.230000 2.423861 36.637900 3.245347 0.138795
5059.570000 5059.580000 1.240000 2.422755 37.042466 3.284804 0.140839
5061.474000 5061.480000 1.250000 2.418063 37.446274 3.336224 0.143442
5063.394000 5063.400000 1.260000 2.410629 37.851950 3.397515 0.147068
5065.325000 5065.330000 1.280000 2.402442 38.573027 3.490714 0.152591
5067.282000 5067.290000 1.290000 2.395070 38.990521 3.554576 0.156635
5069.252000 5069.260000 1.300000 2.389669 39.410907 3.612371 0.160422
5071.251000 5071.260000 1.310000 2.386586 39.832359 3.662277 0.163535
5073.260000 5073.270000 1.330000 2.385287 40.600538 3.737780 0.167083
5075.295000 5075.300000 1.340000 2.384493 41.023741 3.779754 0.168257
5077.343000 5077.350000 1.350000 2.382141 41.448522 3.827868 0.169023
5079.413000 5079.420000 1.360000 2.377355 41.874101 3.885728 0.169237
5081.506000 5081.510000 1.380000 2.371466 42.613190 3.977681 0.170813
5083.604000 5083.610000 1.390000 2.365253 43.036886 4.042268 0.170532
5085.735000 5085.740000 1.400000 2.358338 43.468405 4.111118 0.170523
5087.885000 5087.890000 1.410000 2.351727 43.898319 4.179330 0.170806
5090.047000 5090.050000 1.430000 2.346079 44.693184 4.279122 0.173945
5092.228000 5092.230000 1.440000 2.341721 45.151052 4.341840 0.177013
5094.444000 5094.440000 1.450000 2.337816 45.606338 4.402819 0.182598
5096.661000 5096.660000 1.460000 2.333709 46.051018 4.464010 0.190147
5098.900000 5098.900000 1.480000 2.329419 46.808334 4.556910 0.200240
5101.159000 5101.160000 1.490000 2.325093 47.255870 4.620394 0.209049
5103.438000 5103.440000 1.500000 2.320690 47.714567 4.685820 0.217380
5105.740000 5105.740000 1.510000 2.316388 48.167592 4.750720 0.223493
5108.049000 5108.050000 1.530000 2.312879 48.976585 4.847487 0.229133
5110.393000 5110.390000 1.540000 2.309222 49.445456 4.911845 0.232879
5112.743000 5112.740000 1.550000 2.305438 49.908671 4.976663 0.236657
5115.125000 5115.120000 1.560000 2.301714 50.396313 5.044050 0.240377
5117.512000 5117.510000 1.580000 2.298582 51.205464 5.141080 0.245701
5119.920000 5119.920000 1.590000 2.295692 51.670077 5.202734 0.249408
5122.351000 5122.350000 1.600000 2.292906 52.132854 5.263978 0.253741
5124.803000 5124.800000 1.610000 2.290640 52.603635 5.323582 0.258272
5127.275000 5127.270000 1.630000 2.288769 53.410358 5.415364 0.264330
5129.763000 5129.760000 1.640000 2.285990 53.879896 5.478157 0.269128
5132.272000 5132.270000 1.650000 2.282189 54.355831 5.547592 0.273462
5134.792000 5134.790000 1.660000 2.277348 54.828775 5.623008 0.277291
5137.341000 5137.340000 1.680000 2.271396 55.632233 5.739480 0.282163
5139.902000 5139.900000 1.690000 2.264779 56.112223 5.827454 0.285260
5142.489000 5142.490000 1.700000 2.258145 56.660503 5.923494 0.288389
5145.091000 5145.090000 1.710000 2.252468 57.141344 6.007812 0.290976
5147.711000 5147.710000 1.730000 2.248103 57.945785 6.119044 0.295215
5150.350000 5150.350000 1.740000 2.244922 58.422950 6.189093 0.298590
5153.010000 5153.010000 1.750000 2.241602 58.916180 6.262088 0.304351
5155.690000 5155.690000 1.760000 2.237309 59.424361 6.343263 0.312178
5158.393000 5158.390000 1.780000 2.232075 60.228204 6.462858 0.322194
5161.111000 5161.110000 1.790000 2.227377 60.686441 6.542672 0.330166
5163.838000 5163.840000 1.800000 2.223718 61.155464 6.617363 0.337461
5166.601000 5166.600000 1.810000 2.220318 61.615356 6.689862 0.344111
5169.373000 5169.370000 1.830000 2.216075 62.416360 6.805688 0.353633
5172.171000 5172.170000 1.840000 2.211201 62.866595 6.888211 0.362336
5174.981000 5174.980000 1.850000 2.205991 63.334884 6.975777 0.371490
5177.811000 5177.810000 1.860000 2.200798 63.808536 7.064571 0.380261
5180.661000 5180.660000 1.880000 2.195169 64.601248 7.192671 0.390171
5183.532000 5183.530000 1.890000 2.189337 65.061452 7.286308 0.397256
5186.420000 5186.420000 1.900000 2.183678 65.496259 7.376626 0.403692
5189.320000 5189.320000 1.910000 2.178268 65.939408 7.466791 0.410192
5192.250000 5192.250000 1.930000 2.173174 66.764032 7.598793 0.418484
5195.200000 5195.200000 1.940000 2.168162 67.244947 7.692010 0.424909
5198.158000 5198.160000 1.950000 2.162638 67.710481 7.788106 0.431075
5201.142000 5201.140000 1.960000 2.156766 68.155536 7.885538 0.437267
5204.151000 5204.150000 1.980000 2.151420 68.959964 8.021358 0.445146
5207.170000 5207.170000 1.990000 2.146760 69.429483 8.113656 0.450526
5210.210000 5210.210000 2.000000 2.142303 69.893773 8.204435 0.456044
5213.266000 5213.270000 2.010000 2.137970 70.344004 8.293072 0.462242
5216.351000 5216.350000 2.030000 2.133421 71.140815 8.425325 0.472130
5219.451000 5219.450000 2.040000 2.128870 71.600393 8.518412 0.480641
5222.561000 5222.560000 2.050000 2.124404 72.069310 8.612592 0.488814
5225.699000 5225.700000 2.060000 2.120441 72.512880 8.699986 0.497002
5228.850000 5228.850000 2.080000 2.116970 73.327838 8.828351 0.507041
5232.031000 5232.030000 2.090000 2.113099 73.909138 8.932880 0.516224
5235.219000 5235.220000 2.100000 2.108084 74.404816 9.037969 0.526072
5238.432000 5238.430000 2.110000 2.101889 74.878085 9.152040 0.537294
5241.659000 5241.660000 2.130000 2.095123 75.696993 9.314864 0.551653
5244.921000 5244.920000 2.140000 2.088511 76.123647 9.429571 0.563546
5248.179000 5248.180000 2.150000 2.082632 76.185775 9.492839 0.571793
5251.472000 5251.470000 2.160000 2.077344 76.783516 9.618129 0.584122
5254.780000 5254.780000 2.180000 2.072223 77.889220 9.806655 0.600284
5258.111000 5258.110000 2.190000 2.067279 78.555174 9.939566 0.612521
5261.450000 5261.450000 2.200000 2.062386 79.032263 10.048951 0.623404
5264.821000 5264.820000 2.210000 2.057626 79.579156 10.166780 0.633432
5268.202000 5268.200000 2.230000 2.053011 80.489610 10.330663 0.646263
5271.601000 5271.600000 2.240000 2.048391 81.032419 10.448502 0.655663
5275.032000 5275.030000 2.250000 2.043740 81.662130 10.578778 0.665884
5278.471000 5278.470000 2.260000 2.038948 81.269950 10.578550 0.667813
5281.933000 5281.930000 2.280000 2.034127 82.933522 10.847249 0.687192
5285.401000 5285.400000 2.290000 2.029147 83.563742 10.984241 0.698335
5288.903000 5288.900000 2.300000 2.023800 84.200103 11.127245 0.710912
5292.420000 5292.420000 2.310000 2.017978 84.799131 11.271793 0.724229
5295.959000 5295.960000 2.330000 2.012067 85.756113 11.466581 0.741392
5299.514000 5299.510000 2.340000 2.006124 86.287207 11.606399 0.755354
5303.091000 5303.090000 2.350000 2.000077 86.807675 11.747221 0.769078
5306.681000 5306.680000 2.360000 1.994241 87.223717 11.872605 0.781666
5310.291000 5310.290000 2.380000 1.988463 88.062998 12.056310 0.797871
5313.920000 5313.920000 2.390000 1.982852 88.531495 12.188643 0.811574
5317.572000 5317.570000 2.400000 1.977308 89.105133 12.335824 0.826188
5321.238000 5321.240000 2.410000 1.971582 89.720378 12.492286 0.841905
5324.930000 5324.930000 2.430000 1.966016 90.628073 12.689122 0.860943
5328.640000 5328.640000 2.440000 1.960644 91.174597 12.834401 0.876386
5332.359000 5332.360000 2.450000 1.955328 91.642828 12.969091 0.891604
5336.111000 5336.110000 2.460000 1.950110 92.232606 13.120832 0.908607
5339.873000 5339.870000 2.480000 1.945069 93.248533 13.332406 0.929689
5343.660000 5343.660000 2.490000 1.940217 93.794253 13.475648 0.946873
5347.463000 5347.460000 2.500000 1.935300 94.312823 13.616975 0.963324
5351.281000 5351.280000 2.510000 1.930247 94.742033 13.748211 0.977997
5355.120000 5355.120000 2.530000 1.924908 95.450124 13.925100 0.996339
5358.982000 5358.980000 2.540000 1.919154 95.944908 14.078080 1.012130
5362.859000 5362.860000 2.550000 1.913149 97.243275 14.354481 1.036578
5366.763000 5366.760000 2.560000 1.907410 97.887130 14.532789 1.053427
5370.680000 5370.680000 2.580000 1.901677 98.980179 14.779468 1.075954
5374.613000 5374.610000 2.590000 1.895760 99.631946 14.965157 1.094699
5378.572000 5378.570000 2.600000 1.889557 100.334067 15.164390 1.115311
5382.540000 5382.540000 2.610000 1.883577 101.098069 15.371408 1.136829
5386.538000 5386.540000 2.630000 1.877746 102.244437 15.636598 1.163550
5390.552000 5390.550000 2.640000 1.871953 102.983119 15.841202 1.186089
5394.582000 5394.580000 2.650000 1.866363 103.781799 16.053497 1.209141
5398.629000 5398.630000 2.660000 1.861005 104.297076 16.219815 1.228958
5402.700000 5402.700000 2.680000 1.855780 105.504303 16.493546 1.257200
5406.794000 5406.790000 2.690000 1.850501 106.209881 16.691791 1.280267
5410.902000 5410.900000 2.700000 1.845247 106.904693 16.889435 1.303239
5415.020000 5415.020000 2.710000 1.839773 107.762683 17.118398 1.329082
5419.169000 5419.170000 2.730000 1.834204 108.588587 17.345955 1.355326
5423.333000 5423.330000 2.740000 1.828608 109.490707 17.588259 1.382620
5427.521000 5427.520000 2.750000 1.822947 110.204761 17.803415 1.408774
5431.721000 5431.720000 2.760000 1.817273 110.923459 18.021496 1.434815
5435.941000 5435.940000 2.780000 1.811516 112.057309 18.310834 1.467296
5440.182000 5440.180000 2.790000 1.805582 112.959601 18.568099 1.497397
5444.438000 5444.440000 2.800000 1.799607 113.787446 18.816181 1.525758
5448.720000 5448.720000 2.810000 1.793599 114.488958 19.046374 1.553842
5453.023000 5453.020000 2.830000 1.787632 115.593498 19.345302 1.586895
5457.341000 5457.340000 2.840000 1.781708 116.278935 19.575544 1.615223
5461.669000 5461.670000 2.850000 1.775767 116.942155 19.804447 1.642726
5466.031000 5466.030000 2.860000 1.769857 117.571175 20.029088 1.670382
5470.400000 5470.400000 2.880000 1.763968 118.620469 20.327204 1.705266
5474.804000 5474.800000 2.890000 1.758103 119.250379 20.555347 1.734123
5479.211000 5479.210000 2.900000 1.752405 119.792597 20.766759 1.762005
5483.639000 5483.640000 2.910000 1.746863 120.263575 20.964282 1.788778
5488.090000 5488.090000 2.930000 1.741452 121.160651 21.235264 1.821897
5492.561000 5492.560000 2.940000 1.735961 121.703172 21.447808 1.851536
5497.052000 5497.050000 2.950000 1.730283 122.084619 21.637544 1.878674
5501.563000 5501.560000 2.960000 1.724664 122.435300 21.822020 1.906349
5506.079000 5506.080000 2.980000 1.718849 123.143171 22.076106 1.939851
5510.632000 5510.630000 2.990000 1.713000 123.438498 22.258902 1.967217
5515.193000 5515.190000 3.000000 1.707160 123.687652 22.434490 1.994332
5519.784000 5519.780000 3.010000 1.701321 123.883646 22.601657 2.021561
5524.380000 5524.380000 3.030000 1.695485 124.492895 22.845705 2.055522
5528.999000 5529.000000 3.040000 1.689572 124.695463 23.018599 2.083678
5533.639000 5533.640000 3.050000 1.683615 124.786649 23.173049 2.110584
5538.301000 5538.300000 3.060000 1.677579 124.901631 23.334830 2.138298
5542.982000 5542.980000 3.080000 1.671430 125.356858 23.564355 2.172781
5547.681000 5547.680000 3.090000 1.665408 125.290584 23.694101 2.197291
5552.398000 5552.400000 3.100000 1.659468 125.301124 23.837249 2.223906
5557.130000 5557.130000 3.110000 1.653674 125.238361 23.963821 2.248538
5561.890000 5561.890000 3.130000 1.647936 125.698852 24.190316 2.282960
5566.663000 5566.660000 3.140000 1.642092 125.698507 24.332107 2.310002
5571.461000 5571.460000 3.150000 1.636243 125.669575 24.469139 2.337017
5576.272000 5576.270000 3.160000 1.630373 125.638293 24.607105 2.363708
5581.099000 5581.100000 3.180000 1.624466 125.995676 24.823254 2.398545
5585.951000 5585.950000 3.190000 1.618550 126.021966 24.975792 2.427819
5590.817000 5590.820000 3.200000 1.612625 126.033557 25.126452 2.456500
5595.709000 5595.710000 3.210000 1.606651 126.202459 25.310921 2.488789
5600.621000 5600.620000 3.230000 1.600661 126.685191 25.560397 2.528068
5605.540000 5605.540000 3.240000 1.594678 126.872728 25.751845 2.561979
5610.490000 5610.490000 3.250000 1.588759 126.964379 25.923417 2.594478
5615.451000 5615.450000 3.260000 1.582779 127.102982 26.107373 2.628342
5620.441000 5620.440000 3.280000 1.576673 127.619576 26.374031 2.671294
5625.440000 5625.440000 3.290000 1.570613 127.259752 26.459517 2.696218
5630.460000 5630.460000 3.300000 1.564517 127.497287 26.671002 2.734378
5635.499000 5635.500000 3.310000 1.558477 127.617225 26.857838 2.770797
5640.559000 5640.560000 3.330000 1.552453 128.448294 27.196066 2.822570
5645.639000 5645.640000 3.340000 1.546498 128.708378 27.413899 2.862254
5650.741000 5650.740000 3.350000 1.540659 129.186149 27.676800 2.907448
5655.860000 5655.860000 3.360000 1.534714 129.775947 27.968934 2.955840
5660.991000 5660.990000 3.380000 1.528791 130.761523 28.348778 3.014185
5666.151000 5666.150000 3.390000 1.522902 131.514814 28.680473 3.067178
5671.323000 5671.320000 3.400000 1.517067 132.150055 28.987746 3.118385
5676.521000 5676.520000 3.410000 1.511162 133.098554 29.368626 3.178354
5681.730000 5681.730000 3.430000 1.505170 134.316728 29.815479 3.245684
5686.960000 5686.960000 3.440000 1.499212 135.166455 30.183439 3.305388
5692.211000 5692.210000 3.450000 1.493182 135.858288 30.521414 3.362688
5697.482000 5697.480000 3.460000 1.487242 136.524129 30.853793 3.419068
5702.771000 5702.770000 3.480000 1.481284 137.597046 31.282054 3.487449
5708.079000 5708.080000 3.490000 1.475271 138.266229 31.623712 3.546715
5713.401000 5713.400000 3.500000 1.469316 139.046813 31.992288 3.609310
5718.749000 5718.750000 3.510000 1.463337 139.829541 32.365277 3.672946
5724.120000 5724.120000 3.530000 1.457447 140.867475 32.798119 3.743926
5729.503000 5729.500000 3.540000 1.451627 141.448341 33.125674 3.804258
5734.901000 5734.900000 3.550000 1.445730 142.137752 33.483976 3.867911
5740.320000 5740.320000 3.560000 1.439804 142.739050 33.825446 3.931119
5745.772000 5745.770000 3.580000 1.433786 143.805640 34.283942 4.008345
5751.232000 5751.230000 3.590000 1.427845 144.614863 34.682311 4.079176
5756.700000 5756.700000 3.600000 1.421916 145.374551 35.071736 4.149984
5762.202000 5762.200000 3.610000 1.415985 146.088459 35.453722 4.220210
5767.722000 5767.720000 3.630000 1.410069 147.153391 35.924105 4.302313
5773.261000 5773.260000 3.640000 1.404130 147.753813 36.285496 4.371323
5778.813000 5778.810000 3.650000 1.398194 148.401385 36.661518 4.442969
5784.391000 5784.390000 3.660000 1.392316 148.959074 37.016220 4.512727
5789.982000 5789.980000 3.680000 1.386393 149.919000 37.476073 4.596496
5795.590000 5795.590000 3.690000 1.380502 150.697268 37.893130 4.674967
5801.223000 5801.220000 3.700000 1.374500 151.150070 38.235894 4.745503
5806.869000 5806.870000 3.710000 1.368594 151.638259 38.586474 4.817701
5812.540000 5812.540000 3.730000 1.362726 152.594295 39.058323 4.905492
5818.231000 5818.230000 3.740000 1.356805 153.087685 39.417317 4.980231
