# XDI/1.0 BlueSky/1.10.0 BMM/2023-1.0-py310-tiled
# Beamline.name: BMM (06BM) -- Beamline for Materials Measurement (NIST)
# Beamline.xray_source: NSLS-II three-pole wiggler
# Beamline.collimation: paraboloid mirror, 5 nm Rh on 30 nm Pt
# Beamline.focusing: not in use
# Beamline.harmonic_rejection: flat mirror, Si stripe, pitch = 7.0 mrad relative to beam
# Beamline.software: Bluesky 1.10.0, Ophyd 1.7.0, DataBroker 2.0.0b13, Python 3.10.8, 2023-1.0-py310-tiled
# Detector.I0: 10 cm N2
# Detector.I1: 25 cm N2
# Detector.I2: 25 cm N2
# Element.symbol: Nd
# Element.edge: L3
# Element.reference: Nd
# Element.reference_material: Nd2O3
# Facility.name: NSLS-II
# Facility.energy: 3.0
# Facility.current: 399.3
# Facility.mode: top-off
# Facility.GUP: 301027
# Facility.SAF: 310583
# Facility.cycle: 2023-2
# Mono.name: Si(111)
# Mono.d_spacing: 3.1351860
# Mono.encoder_resolution: 0.0000050 deg/ct
# Mono.angle_offset: 16.0754326 deg
# Mono.scan_mode: pseudo channel cut
# Mono.scan_type: step
# Mono.direction: forward in energy
# Sample.name: Nd2O3
# Sample.prep: PEG pellet
# Sample.x: 109.138 mm
# Sample.y: 153.150 mm
# Sample.SDD_position: 205.000 mm
# Scan.experimenters: Bruce Ravel
# Scan.edge_energy: 6207.9
# Scan.start_time: 2023-05-28T12:05:48
# Scan.end_time: 2023-05-28T12:12:27
# Scan.transient_id: 78665
# Scan.uid: 5ee119b5-a419-41d0-89a6-3679bcaa33e3
# Scan.plot_hint: ln(It/Ir)  --  ln($6/$7)
# Column.1: energy eV
# Column.2: requested_energy eV
# Column.3: measurement_time seconds
# Column.4: xmu 
# Column.5: I0 nA
# Column.6: It nA
# Column.7: Ir nA
# ///////////
# sample courtesy Martin Stennett, University of Sheffield
# -----------
# energy  requested_energy  measurement_time  xmu  I0  It  Ir
  6007.905  6007.900  0.500  2.469902  145.563109  90.978286  7.696142
  6017.912  6017.900  0.500  2.457475  146.307023  91.954920  7.876025
  6027.911  6027.900  0.500  2.445144  146.658643  92.755927  8.043207
  6037.929  6037.900  0.500  2.433148  146.973616  93.420172  8.198567
  6047.901  6047.900  0.500  2.421018  147.309781  94.129706  8.361649
  6057.903  6057.900  0.500  2.409115  147.348974  94.699199  8.512969
  6067.913  6067.900  0.500  2.397357  147.438424  95.285959  8.667021
  6077.910  6077.900  0.500  2.385430  147.788988  96.041334  8.840550
  6087.910  6087.900  0.500  2.373819  148.041321  96.729120  9.007844
  6097.912  6097.900  0.500  2.362062  148.390510  97.494571  9.186493
  6107.913  6107.900  0.500  2.350490  148.706784  98.226270  9.363170
  6117.913  6117.900  0.500  2.339146  148.993467  98.938802  9.538684
  6127.908  6127.900  0.500  2.327715  149.298235  99.622978  9.715065
  6137.891  6137.900  0.500  2.316558  149.598675  100.370771  9.897801
  6147.893  6147.900  0.500  2.306347  149.538845  100.907759  10.052884
  6157.892  6157.900  0.500  2.295577  149.710877  101.510999  10.222492
  6167.890  6167.900  0.500  2.285082  149.893229  102.127716  10.393095
  6177.899  6177.900  0.500  2.275226  150.207459  102.929838  10.578475
  6179.896  6179.900  0.500  2.273520  150.256727  103.066807  10.610640
  6181.891  6181.900  0.500  2.271681  150.311046  103.172001  10.641021
  6183.896  6183.900  0.500  2.270087  150.363702  103.314419  10.672712
  6185.891  6185.900  0.500  2.268506  150.401198  103.485916  10.707340
  6187.893  6187.900  0.500  2.267129  150.430336  103.616241  10.735598
  6189.897  6189.900  0.500  2.266029  150.493391  103.766257  10.762970
  6191.891  6191.900  0.500  2.265037  150.519249  103.884766  10.785965
  6193.899  6193.900  0.500  2.264703  150.563570  104.032240  10.804879
  6195.899  6195.900  0.500  2.264851  150.612473  104.184969  10.819144
  6197.896  6197.900  0.500  2.265791  150.640478  104.281198  10.818955
  6198.187  6198.200  0.500  2.266067  150.619033  104.236513  10.811338
  6198.489  6198.500  0.500  2.266391  150.638853  104.390641  10.823813
  6198.789  6198.800  0.500  2.266858  150.631246  104.350165  10.814572
  6199.085  6199.100  0.500  2.267165  150.626671  104.357901  10.812050
  6199.389  6199.400  0.500  2.267642  150.635525  104.340609  10.805104
  6199.688  6199.700  0.500  2.268149  150.639401  104.340638  10.799634
  6199.987  6200.000  0.500  2.268591  150.648272  104.373554  10.798265
  6200.289  6200.300  0.500  2.269110  150.672376  104.433098  10.798820
  6200.590  6200.600  0.500  2.269890  150.645641  104.384448  10.785366
  6200.888  6200.900  0.500  2.270631  150.669552  104.474103  10.786636
  6201.188  6201.200  0.500  2.271344  150.656112  104.481111  10.779670
  6201.491  6201.500  0.500  2.272186  150.675790  104.492152  10.771742
  6201.790  6201.800  0.500  2.273330  150.673175  104.486446  10.758834
  6202.091  6202.100  0.500  2.274449  150.679036  104.475733  10.745706
  6202.394  6202.400  0.500  2.275831  150.659741  104.476033  10.730890
  6202.693  6202.700  0.500  2.277258  150.656301  104.482996  10.716300
  6202.994  6203.000  0.500  2.278838  150.691891  104.512570  10.702411
  6203.295  6203.300  0.500  2.280718  150.687190  104.532122  10.684313
  6203.594  6203.600  0.500  2.282890  150.671708  104.582123  10.666232
  6203.895  6203.900  0.500  2.285268  150.696113  104.631259  10.645897
  6204.193  6204.200  0.500  2.287772  150.695024  104.667988  10.622995
  6204.493  6204.500  0.500  2.290715  150.700015  104.688380  10.593846
  6204.794  6204.800  0.500  2.293804  150.714973  104.708531  10.563208
  6205.097  6205.100  0.500  2.296834  150.727075  104.787348  10.539168
  6205.398  6205.400  0.500  2.299984  150.727323  104.705253  10.497797
  6205.696  6205.700  0.500  2.303379  150.730880  104.732638  10.464953
  6205.996  6206.000  0.500  2.306813  150.753389  104.749227  10.430733
  6206.297  6206.300  0.500  2.310703  150.738943  104.783769  10.393658
  6206.595  6206.600  0.500  2.314800  150.751301  104.854926  10.358197
  6206.896  6206.900  0.500  2.319347  150.754949  104.900393  10.315669
  6207.193  6207.200  0.500  2.324055  150.746250  104.861735  10.263441
  6207.493  6207.500  0.500  2.328759  150.749625  104.873019  10.216373
  6207.796  6207.800  0.500  2.334203  150.739600  104.884542  10.162019
  6208.094  6208.100  0.500  2.339968  150.747476  104.869863  10.102191
  6208.397  6208.400  0.500  2.346586  150.751810  104.868456  10.035419
  6208.697  6208.700  0.500  2.354169  150.763948  104.943580  9.966739
  6208.999  6209.000  0.500  2.362943  150.767813  104.959358  9.881163
  6209.299  6209.300  0.500  2.373290  150.773007  104.994586  9.782728
  6209.600  6209.600  0.500  2.385804  150.765358  104.987389  9.660410
  6209.901  6209.900  0.500  2.400735  150.773380  104.978070  9.516398
  6210.199  6210.200  0.500  2.418600  150.756233  104.976901  9.347796
  6210.494  6210.500  0.500  2.438976  150.762248  104.987317  9.160161
  6210.794  6210.800  0.500  2.463115  150.784535  105.012918  8.943874
  6211.093  6211.100  0.500  2.492344  150.783702  105.050694  8.689362
  6211.400  6211.400  0.500  2.528203  150.781372  105.037322  8.382216
  6211.700  6211.700  0.500  2.570005  150.769865  105.061403  8.040888
  6212.000  6212.000  0.500  2.616683  150.777090  105.126392  7.678928
  6212.301  6212.300  0.500  2.668445  150.793430  105.222439  7.298227
  6212.601  6212.600  0.500  2.725607  150.801283  105.206419  6.891698
  6212.898  6212.900  0.500  2.785211  150.801676  105.209728  6.493129
  6213.200  6213.200  0.500  2.846387  150.803939  105.202994  6.107422
  6213.496  6213.500  0.500  2.902160  150.827011  105.233703  5.777805
  6213.795  6213.800  0.500  2.950969  150.808731  105.239767  5.502882
  6214.100  6214.100  0.500  2.989633  150.805203  105.222420  5.293306
  6214.402  6214.400  0.500  3.017173  150.799011  105.245226  5.150637
  6214.703  6214.700  0.500  3.030681  150.809103  105.276687  5.083046
  6214.998  6215.000  0.500  3.030189  150.804078  105.311188  5.087215
  6215.301  6215.300  0.500  3.017470  150.778526  105.270632  5.150348
  6215.600  6215.600  0.500  2.994489  150.802959  105.331897  5.273148
  6215.900  6215.900  0.500  2.963929  150.785766  105.368079  5.438648
  6216.198  6216.200  0.500  2.928088  150.811557  105.357254  5.636533
  6216.494  6216.500  0.500  2.889745  150.822269  105.354268  5.856682
  6216.799  6216.800  0.500  2.850487  150.827315  105.384235  6.092911
  6217.105  6217.100  0.500  2.812995  150.831300  105.425843  6.328180
  6217.401  6217.400  0.500  2.777549  150.849533  105.470523  6.559293
  6217.702  6217.700  0.500  2.743084  150.858441  105.495395  6.790896
  6217.998  6218.000  0.500  2.711288  150.855236  105.497368  7.010421
  6218.296  6218.300  0.500  2.681905  150.837924  105.457207  7.216718
  6218.603  6218.600  0.500  2.655173  150.851922  105.480248  7.413858
  6218.894  6218.900  0.500  2.631659  150.872832  105.502611  7.591862
  6219.200  6219.200  0.500  2.609608  150.863202  105.534092  7.763444
  6219.501  6219.500  0.500  2.589413  150.856450  105.600372  7.926799
  6219.801  6219.800  0.500  2.571127  150.881075  105.650014  8.076870
  6220.102  6220.100  0.500  2.555172  150.881291  105.644943  8.206380
  6220.401  6220.400  0.500  2.541018  150.870152  105.660821  8.324608
  6220.699  6220.700  0.500  2.528209  150.883714  105.659634  8.431829
  6221.000  6221.000  0.500  2.516486  150.883140  105.638800  8.529573
  6221.298  6221.300  0.500  2.506255  150.874110  105.704473  8.622651
  6221.598  6221.600  0.500  2.497503  150.898685  105.759730  8.702989
  6221.896  6221.900  0.500  2.490165  150.897766  105.718589  8.763682
  6222.199  6222.200  0.500  2.483933  150.899610  105.738017  8.820084
  6222.502  6222.500  0.500  2.478560  150.902589  105.783066  8.871379
  6222.799  6222.800  0.500  2.474581  150.890655  105.787863  8.907155
  6223.100  6223.100  0.500  2.471489  150.877325  105.777946  8.933904
  6223.397  6223.400  0.500  2.469063  150.906706  105.820918  8.959241
  6223.701  6223.700  0.500  2.467324  150.928676  105.834942  8.976023
  6224.000  6224.000  0.500  2.466097  150.911478  105.882455  8.991078
  6224.295  6224.300  0.500  2.465241  150.902661  105.883796  8.998888
  6224.599  6224.600  0.500  2.464708  150.916433  105.884731  9.003769
  6224.901  6224.900  0.500  2.464236  150.911332  105.882379  9.007820
  6225.206  6225.200  0.500  2.463730  150.934624  105.933182  9.016697
  6225.503  6225.500  0.500  2.463381  150.918697  105.939259  9.020362
  6225.803  6225.800  0.500  2.462892  150.929445  105.959645  9.026510
  6226.101  6226.100  0.500  2.462320  150.946473  106.010242  9.035995
  6226.401  6226.400  0.500  2.461705  150.923238  105.973639  9.038433
  6226.698  6226.700  0.500  2.460746  150.927626  105.959942  9.045930
  6227.002  6227.000  0.500  2.459649  150.956792  106.010218  9.060161
  6227.299  6227.300  0.500  2.458362  150.957695  106.034434  9.073897
  6227.602  6227.600  0.500  2.456784  150.950689  106.059545  9.090381
  6227.902  6227.900  0.500  2.455028  150.957527  106.042821  9.104920
  6228.201  6228.200  0.500  2.453186  150.955721  106.055591  9.122809
  6228.502  6228.500  0.500  2.451399  150.965011  106.079113  9.141150
  6228.800  6228.800  0.500  2.449423  150.948495  106.079835  9.159294
  6229.099  6229.100  0.500  2.447405  150.972399  106.104911  9.179967
  6229.398  6229.400  0.500  2.445524  150.978984  106.118612  9.198436
  6229.698  6229.700  0.500  2.443805  150.976773  106.131301  9.215365
  6229.999  6230.000  0.500  2.442234  150.959365  106.140486  9.230651
  6230.299  6230.300  0.500  2.440817  150.962564  106.171061  9.246401
  6230.600  6230.600  0.500  2.439552  150.963419  106.185824  9.259390
  6230.905  6230.900  0.500  2.438483  150.965815  106.203792  9.270868
  6231.201  6231.200  0.500  2.437746  150.972406  106.214957  9.278680
  6231.502  6231.500  0.500  2.437187  150.961795  106.223663  9.284626
  6231.801  6231.800  0.500  2.436895  150.961813  106.258598  9.290395
  6232.098  6232.100  0.500  2.436790  150.977708  106.310356  9.295897
  6232.401  6232.400  0.500  2.437074  151.003735  106.340628  9.295897
  6232.700  6232.700  0.500  2.437492  150.995444  106.369170  9.294510
  6232.900  6232.900  0.500  2.438034  151.422908  106.703895  9.318704
  6233.898  6233.890  0.500  2.442067  151.465313  106.783152  9.288089
  6234.900  6234.890  0.500  2.448692  151.492942  106.842406  9.231884
  6235.921  6235.910  0.500  2.456850  151.504155  106.874420  9.159614
  6236.971  6236.960  0.500  2.465193  151.489324  106.909733  9.086520
  6238.028  6238.020  0.500  2.473305  151.555418  107.020844  9.022473
  6239.114  6239.100  0.500  2.481296  151.583700  107.110939  8.958202
  6240.210  6240.200  0.500  2.488676  151.586480  107.184226  8.898410
  6241.335  6241.320  0.500  2.496089  151.639852  107.237520  8.837082
  6242.479  6242.460  0.500  2.502814  151.630031  107.329092  8.785349
  6243.604  6243.610  0.500  2.508118  151.595651  107.391030  8.743924
  6244.784  6244.790  0.500  2.511598  151.617254  107.453073  8.718582
  6245.976  6245.980  0.500  2.512714  151.592915  107.497733  8.712470
  6247.194  6247.200  0.500  2.511673  151.647325  107.625046  8.731879
  6248.433  6248.430  0.500  2.508447  151.641577  107.657156  8.762705
  6249.681  6249.680  0.500  2.503560  151.692379  107.743007  8.812658
  6250.953  6250.950  0.500  2.497506  151.695394  107.832677  8.873546
  6252.239  6252.240  0.500  2.490472  151.702596  107.899794  8.941749
  6253.547  6253.550  0.500  2.482903  151.712002  108.000557  9.018099
  6254.887  6254.880  0.500  2.474478  151.728946  108.069437  9.100200
  6256.232  6256.230  0.500  2.465725  151.747832  108.169153  9.188673
  6257.603  6257.600  0.500  2.456838  151.760375  108.223873  9.275381
  6258.983  6258.980  0.500  2.448975  151.772193  108.311080  9.356138
  6260.395  6260.390  0.500  2.442365  151.762671  108.334322  9.420202
  6261.811  6261.810  0.500  2.437250  151.784517  108.418564  9.475877
  6263.250  6263.250  0.500  2.433907  151.826709  108.509939  9.515621
  6264.712  6264.710  0.500  2.431488  151.838519  108.603091  9.546853
  6266.194  6266.190  0.500  2.429884  151.868997  108.707611  9.571388
  6267.692  6267.690  0.500  2.428777  151.866775  108.826826  9.592496
  6269.216  6269.210  0.500  2.427627  151.909085  108.949591  9.614362
  6270.750  6270.750  0.500  2.426349  151.922783  109.026994  9.633500
  6272.319  6272.310  0.500  2.425890  151.936924  109.135401  9.647510
  6273.888  6273.880  0.500  2.426114  151.962523  109.226522  9.653397
  6275.489  6275.480  0.500  2.427256  151.959891  109.319799  9.650611
  6277.093  6277.090  0.500  2.428618  152.002602  109.450915  9.649033
  6278.739  6278.730  0.500  2.429866  152.033473  109.528561  9.643840
  6280.386  6280.380  0.500  2.431288  152.055627  109.608793  9.637189
  6282.057  6282.050  0.500  2.432967  152.092398  109.745097  9.632987
  6283.753  6283.740  0.500  2.435263  152.082569  109.829705  9.618303
  6285.453  6285.450  0.500  2.437627  152.097568  109.955066  9.606547
  6287.194  6287.180  0.500  2.439395  152.102199  110.033496  9.596417
  6288.935  6288.930  0.500  2.439832  152.126401  110.149870  9.602372
  6290.700  6290.690  0.500  2.438804  152.149800  110.247216  9.620737
  6292.490  6292.480  0.500  2.436858  152.170509  110.350543  9.648511
  6294.286  6294.280  0.500  2.434204  152.202925  110.459238  9.683687
  6296.122  6296.110  0.500  2.431525  152.212470  110.572742  9.719636
  6297.958  6297.950  0.500  2.428504  152.228840  110.675692  9.758124
  6299.818  6299.810  0.500  2.424751  152.250673  110.754185  9.801765
  6301.697  6301.690  0.500  2.420211  152.257956  110.873334  9.856954
  6303.601  6303.590  0.500  2.415552  152.271241  110.998054  9.914131
  6305.518  6305.510  0.500  2.410920  152.282600  111.114690  9.970618
  6307.462  6307.450  0.500  2.406554  152.300816  111.211316  10.022960
  6309.420  6309.410  0.500  2.402166  152.323605  111.299271  10.075001
  6311.386  6311.380  0.500  2.397895  152.360669  111.418174  10.128930
  6313.392  6313.380  0.500  2.394061  152.368194  111.545731  10.179477
  6315.402  6315.390  0.500  2.391318  152.394602  111.653696  10.217319
  6317.425  6317.420  0.500  2.389403  152.386844  111.744553  10.245234
  6319.487  6319.480  0.500  2.387872  152.422570  111.887147  10.274029
  6321.562  6321.550  0.500  2.386666  152.385707  111.982786  10.295215
  6323.657  6323.640  0.500  2.385289  152.411414  112.118002  10.321853
  6325.756  6325.750  0.500  2.383933  152.444212  112.259615  10.348909
  6327.891  6327.880  0.500  2.382371  152.476437  112.382483  10.376432
  6330.029  6330.020  0.500  2.380707  152.475021  112.514546  10.405925
  6332.198  6332.190  0.500  2.378752  152.493865  112.651873  10.439017
  6334.391  6334.380  0.500  2.376958  152.502482  112.781893  10.469826
  6336.589  6336.580  0.500  2.375503  152.495656  112.854360  10.491816
  6338.811  6338.800  0.500  2.374079  152.520283  112.968851  10.517424
  6341.059  6341.050  0.500  2.372478  152.543827  113.124399  10.548777
  6343.318  6343.310  0.500  2.370716  152.555445  113.282930  10.582195
  6345.600  6345.590  0.500  2.369328  152.579566  113.440895  10.611662
  6347.902  6347.890  0.500  2.368541  152.608598  113.595210  10.634466
  6350.217  6350.210  0.500  2.367800  152.615086  113.655965  10.648045
  6352.562  6352.550  0.500  2.367401  152.611788  113.767345  10.662728
  6354.910  6354.900  0.500  2.366160  152.651599  113.911724  10.689515
  6357.293  6357.280  0.500  2.364086  152.658257  114.076360  10.727197
  6359.679  6359.670  0.500  2.361421  152.663539  114.253061  10.772480
  6362.099  6362.090  0.500  2.358227  152.713198  114.402883  10.821116
  6364.530  6364.520  0.500  2.354653  152.725181  114.513057  10.870322
  6366.976  6366.970  0.500  2.351005  152.725676  114.654619  10.923527
  6369.460  6369.450  0.500  2.346742  152.733494  114.844011  10.988318
  6371.950  6371.940  0.500  2.342403  152.730751  114.959302  11.047180
  6374.462  6374.450  0.500  2.338308  152.736545  115.085933  11.104724
  6376.982  6376.970  0.500  2.334221  152.762801  115.159723  11.157357
  6379.536  6379.520  0.500  2.330738  152.749666  115.288804  11.208832
  6382.102  6382.090  0.500  2.327831  152.745899  115.420646  11.254327
  6384.681  6384.670  0.500  2.325054  152.744201  115.559671  11.299213
  6387.292  6387.280  0.500  2.322716  152.760948  115.761799  11.345475
  6389.910  6389.900  0.500  2.320376  152.726517  115.826079  11.378360
  6392.558  6392.550  0.500  2.318138  152.727143  115.930887  11.414176
  6395.219  6395.210  0.500  2.316014  152.735298  116.096931  11.454826
  6397.897  6397.890  0.500  2.313986  152.743560  116.276719  11.495857
  6400.601  6400.590  0.500  2.311982  152.748571  116.436431  11.534743
  6403.321  6403.310  0.500  2.309609  152.733864  116.575900  11.575995
  6406.064  6406.050  0.500  2.306866  152.715499  116.683305  11.618488
  6408.814  6408.800  0.500  2.304172  152.696056  116.824823  11.663954
  6411.593  6411.580  0.500  2.301125  152.722747  116.975384  11.714635
  6414.382  6414.370  0.500  2.298483  152.732615  117.107618  11.758897
  6417.202  6417.190  0.500  2.295789  152.721626  117.228773  11.802821
  6420.034  6420.020  0.500  2.293168  152.747648  117.429421  11.854054
  6422.884  6422.870  0.500  2.290267  152.716903  117.531262  11.898798
  6425.761  6425.750  0.500  2.287496  152.703046  117.704824  11.949432
  6428.653  6428.640  0.500  2.284652  152.651646  117.803447  11.993507
  6431.563  6431.550  0.500  2.281944  152.619226  117.928020  12.038742
  6434.474  6434.470  0.500  2.279387  152.582445  118.067874  12.083878
  6437.426  6437.420  0.500  2.277018  152.544316  118.193136  12.125392
  6440.397  6440.390  0.500  2.274562  152.560382  118.373637  12.173769
  6443.378  6443.370  0.500  2.272154  152.558010  118.487913  12.214905
  6446.386  6446.380  0.500  2.269447  152.535743  118.627894  12.262482
  6449.405  6449.400  0.500  2.266317  149.911445  116.721221  12.103214
  6452.460  6452.450  0.500  2.263481  152.378633  118.781914  12.351872
  6455.515  6455.510  0.500  2.260097  152.424195  119.019103  12.418494
  6458.600  6458.590  0.500  2.256357  149.458526  116.813881  12.234078
  6461.702  6461.690  0.500  2.252489  152.297003  119.180805  12.530343
  6464.824  6464.810  0.500  2.248560  150.032077  117.587390  12.411485
  6467.957  6467.950  0.500  2.244886  152.168796  119.426079  12.651948
  6471.111  6471.100  0.500  2.241402  152.181318  119.613197  12.716006
  6474.287  6474.280  0.500  2.238106  150.923204  118.773122  12.668375
  6477.480  6477.470  0.500  2.234931  152.028984  119.817773  12.820443
  6480.706  6480.690  0.500  2.231869  152.045336  119.997304  12.879026
  6483.932  6483.920  0.500  2.228979  152.009039  120.124428  12.929990
  6487.180  6487.170  0.500  2.226364  151.970257  120.264824  12.978999
  6490.460  6490.450  0.500  2.223683  151.949946  120.406908  13.029209
  6493.752  6493.740  0.500  2.221209  151.876842  120.557870  13.077864
  6497.063  6497.050  0.500  2.218563  151.816615  120.593464  13.116381
  6500.378  6500.370  0.500  2.215687  151.736248  120.691060  13.164801
  6503.741  6503.720  0.500  2.212478  151.690123  120.824554  13.221727
  6507.101  6507.090  0.500  2.209094  151.621621  120.905634  13.275453
  6510.496  6510.470  0.500  2.205622  151.553268  121.083277  13.341196
  6513.904  6513.880  0.500  2.202146  151.464023  121.188481  13.399287
  6517.315  6517.300  0.500  2.198663  151.412903  121.318730  13.460477
  6520.770  6520.750  0.500  2.195246  151.376452  121.444553  13.520568
  6524.227  6524.210  0.500  2.191715  151.290654  121.561355  13.581433
  6527.718  6527.690  0.500  2.188216  151.222222  121.677461  13.642061
  6531.220  6531.190  0.500  2.185007  151.169374  121.836153  13.703759
  6534.698  6534.710  0.500  2.181758  151.082198  121.952235  13.761448
  6538.242  6538.250  0.500  2.178668  151.001860  122.063963  13.816685
  6541.790  6541.800  0.500  2.175313  150.888611  122.137596  13.871487
  6545.366  6545.380  0.500  2.172121  150.812774  122.269447  13.930856
  6548.970  6548.980  0.500  2.168883  150.690254  122.349692  13.985204
  6552.595  6552.590  0.500  2.165696  150.598319  122.435143  14.039643
  6556.218  6556.220  0.500  2.162297  150.509722  122.515129  14.096662
  6559.870  6559.880  0.500  2.158894  150.379842  122.599646  14.154463
  6563.566  6563.550  0.500  2.155269  150.287395  122.711538  14.218827
  6567.231  6567.240  0.500  2.151389  150.216409  122.824672  14.287274
  6570.965  6570.950  0.500  2.147430  150.157324  122.913963  14.354369
  6574.674  6574.680  0.500  2.143572  150.069467  123.042928  14.424978
  6578.408  6578.420  0.500  2.139818  150.017871  123.226900  14.500878
  6582.201  6582.190  0.500  2.136158  149.902162  123.278259  14.560116
  6585.971  6585.980  0.500  2.132672  149.666212  123.271223  14.610129
  6589.764  6589.780  0.500  2.129113  149.694617  123.481715  14.687259
  6593.593  6593.610  0.500  2.125814  149.578780  123.559639  14.745092
  6597.438  6597.450  0.500  2.122331  149.735421  123.918278  14.839481
  6601.305  6601.310  0.500  2.118806  149.675555  124.090072  14.912531
  6605.179  6605.190  0.500  2.115249  149.563566  124.198780  14.978775
  6609.071  6609.090  0.500  2.111793  149.536388  124.329945  15.046505
  6613.001  6613.010  0.500  2.108451  149.427248  124.436877  15.109868
  6616.959  6616.950  0.500  2.104921  149.307386  124.546119  15.176607
  6620.897  6620.910  0.500  2.101470  149.170793  124.627456  15.239018
  6624.867  6624.880  0.500  2.097891  149.081830  124.751228  15.308847
  6628.865  6628.880  0.500  2.094224  148.880316  124.766116  15.366915
  6632.877  6632.890  0.500  2.090541  148.887996  124.924674  15.443212
  6636.918  6636.930  0.500  2.086697  148.806723  125.059997  15.519489
  6640.968  6640.980  0.500  2.082728  148.712448  125.192702  15.597746
  6645.046  6645.050  0.500  2.078796  148.588353  125.260523  15.667680
  6649.127  6649.140  0.500  2.074970  148.467771  125.361138  15.740375
  6653.261  6653.250  0.500  2.071179  148.387857  125.523446  15.820612
  6657.370  6657.380  0.500  2.067607  148.255980  125.579475  15.884304
  6661.532  6661.530  0.500  2.063972  148.203497  125.715400  15.959412
  6665.671  6665.690  0.500  2.060245  148.098303  125.849622  16.036104
  6669.867  6669.880  0.500  2.056513  147.948603  125.916254  16.104584
  6674.063  6674.080  0.500  2.052714  147.830731  126.007066  16.177543
  6678.298  6678.310  0.500  2.048715  147.737741  126.153170  16.261197
  6682.540  6682.550  0.500  2.044793  147.660230  126.286129  16.342308
  6686.798  6686.810  0.500  2.041047  147.532539  126.311230  16.406901
  6691.084  6691.090  0.500  2.037211  147.429822  126.440780  16.486844
  6695.381  6695.390  0.500  2.033578  147.314595  126.568357  16.563544
  6699.695  6699.710  0.500  2.029941  147.153132  126.637099  16.632933
