# XDI/1.0 BlueSky/1.10.0 BMM/2023-1.0-py310-tiled
# Beamline.name: BMM (06BM) -- Beamline for Materials Measurement (NIST)
# Beamline.xray_source: NSLS-II three-pole wiggler
# Beamline.collimation: paraboloid mirror, 5 nm Rh on 30 nm Pt
# Beamline.focusing: not in use
# Beamline.harmonic_rejection: flat mirror, Pt stripe, pitch = 7.0 mrad relative to beam
# Beamline.software: Bluesky 1.10.0, Ophyd 1.7.0, DataBroker 2.0.0b13, Python 3.10.8, 2023-1.0-py310-tiled
# Detector.I0: 10 cm N2
# Detector.I1: 25 cm N2
# Detector.I2: 25 cm N2
# Element.symbol: Au
# Element.edge: L1
# Element.reference: Au
# Element.reference_material: Au foil
# Facility.name: NSLS-II
# Facility.energy: 3.0
# Facility.current: 400.2
# Facility.mode: top-off
# Facility.GUP: 301027
# Facility.SAF: 310583
# Facility.cycle: 2023-2
# Mono.name: Si(111)
# Mono.d_spacing: 3.1351860
# Mono.encoder_resolution: 0.0000050 deg/ct
# Mono.angle_offset: 16.0754326 deg
# Mono.scan_mode: pseudo channel cut
# Mono.scan_type: step
# Mono.direction: forward in energy
# Sample.name: Au(C2H3O2)3, gold scetate
# Sample.prep: powder on tape
# Sample.x: 145.711 mm
# Sample.y: 114.376 mm
# Sample.SDD_position: 205.000 mm
# Scan.experimenters: Bruce Ravel
# Scan.edge_energy: 14352.8
# Scan.start_time: 2023-06-27T20:36:29
# Scan.end_time: 2023-06-27T20:44:16
# Scan.transient_id: 85303
# Scan.uid: e0957071-d6e3-4ff7-96a0-32c466f3bf60
# Scan.plot_hint: ln(I0/It)  --  ln($5/$6)
# Column.1: energy eV
# Column.2: requested_energy eV
# Column.3: measurement_time seconds
# Column.4: xmu 
# Column.5: I0 nA
# Column.6: It nA
# Column.7: Ir nA
# ///////////
# sample courtesy Martin Stennett, University of Sheffield
# -----------
# energy  requested_energy  measurement_time  xmu  I0  It  Ir
  14152.564  14152.800  0.500  1.067533  34.457209  11.848316  6.699823
  14162.839  14162.800  0.500  1.064604  34.221732  11.801857  6.681686
  14172.821  14172.800  0.500  1.062387  34.472920  11.914866  6.748830
  14182.871  14182.800  0.500  1.060909  34.358273  11.892805  6.742780
  14192.882  14192.800  0.500  1.058985  34.266127  11.883753  6.741285
  14202.864  14202.800  0.500  1.056949  34.197946  11.884280  6.746392
  14212.877  14212.800  0.500  1.054528  34.114538  11.884034  6.751746
  14222.870  14222.800  0.500  1.051881  34.036602  11.888307  6.760312
  14232.912  14232.800  0.500  1.048927  33.962252  11.897435  6.772457
  14242.835  14242.800  0.500  1.046006  33.889414  11.906643  6.786294
  14252.843  14252.800  0.500  1.043084  33.809392  11.913296  6.798105
  14262.848  14262.800  0.500  1.040366  33.723841  11.915483  6.805162
  14272.849  14272.800  0.500  1.038003  31.894272  11.295711  6.456710
  14282.864  14282.800  0.500  1.036856  33.615917  11.919116  6.817480
  14292.858  14292.800  0.500  1.035640  33.535117  11.904931  6.813760
  14302.875  14302.800  0.500  1.034521  33.432157  11.881674  6.804842
  14312.879  14312.800  0.500  1.033467  33.391248  11.879646  6.803973
  14322.861  14322.800  0.500  1.032669  33.323400  11.864972  6.799387
  14324.843  14324.800  0.500  1.032699  33.306768  11.858698  6.794669
  14326.826  14326.800  0.500  1.032964  33.276453  11.844769  6.789042
  14328.818  14328.800  0.500  1.032748  33.286767  11.850994  6.789761
  14330.810  14330.800  0.500  1.032854  33.245896  11.835193  6.780414
  14332.813  14332.800  0.500  1.033019  33.234303  11.829115  6.776661
  14334.815  14334.800  0.500  1.033581  33.236000  11.823065  6.773043
  14336.801  14336.800  0.500  1.034108  33.226621  11.813509  6.766857
  14338.796  14338.800  0.500  1.035160  33.207078  11.794138  6.755140
  14340.791  14340.800  0.500  1.036566  33.178481  11.767431  6.737829
  14342.787  14342.800  0.500  1.037838  33.172956  11.750510  6.722029
  14343.066  14343.100  0.500  1.038360  33.155927  11.738358  6.717317
  14343.363  14343.400  0.500  1.038553  33.145645  11.732449  6.711279
  14343.677  14343.700  0.500  1.038779  33.143668  11.729094  6.709188
  14343.956  14344.000  0.500  1.039040  33.141040  11.725103  6.705601
  14344.280  14344.300  0.500  1.039488  33.134559  11.717564  6.700799
  14344.586  14344.600  0.500  1.039933  33.128107  11.710070  6.695976
  14344.865  14344.900  0.500  1.040247  33.130235  11.707142  6.692909
  14345.180  14345.200  0.500  1.040638  33.132105  11.703234  6.689222
  14345.467  14345.500  0.500  1.041376  33.138196  11.696747  6.685551
  14345.791  14345.800  0.500  1.041595  33.138192  11.694179  6.683731
  14346.088  14346.100  0.500  1.042234  33.138370  11.686781  6.679060
  14346.376  14346.400  0.500  1.042619  33.141465  11.683363  6.674398
  14346.682  14346.700  0.500  1.043262  33.136418  11.674084  6.668237
  14346.979  14347.000  0.500  1.043758  33.131603  11.666599  6.663390
  14347.267  14347.300  0.500  1.044248  33.135010  11.662077  6.657992
  14347.582  14347.600  0.500  1.045148  33.134934  11.651561  6.651333
  14347.861  14347.900  0.500  1.045589  33.125909  11.643252  6.646184
  14348.167  14348.200  0.500  1.046264  33.121424  11.633823  6.637874
  14348.473  14348.500  0.500  1.047226  33.126837  11.624531  6.632718
  14348.752  14348.800  0.500  1.047902  33.116557  11.613074  6.622965
  14349.058  14349.100  0.500  1.048848  33.123587  11.604559  6.617077
  14349.364  14349.400  0.500  1.049613  33.133582  11.599183  6.611320
  14349.661  14349.700  0.500  1.050583  33.106234  11.578370  6.598146
  14349.994  14350.000  0.500  1.051570  33.108861  11.567867  6.590049
  14350.282  14350.300  0.500  1.052634  33.113774  11.557281  6.581113
  14350.579  14350.600  0.500  1.053679  33.110801  11.544171  6.570158
  14350.894  14350.900  0.500  1.055019  33.107680  11.527620  6.560407
  14351.173  14351.200  0.500  1.056128  33.095796  11.510713  6.546367
  14351.506  14351.500  0.500  1.057577  33.097379  11.494594  6.535770
  14351.776  14351.800  0.500  1.058790  33.091397  11.478585  6.522729
  14352.091  14352.100  0.500  1.060454  33.080404  11.455692  6.507790
  14352.397  14352.400  0.500  1.061999  33.089984  11.441329  6.495896
  14352.695  14352.700  0.500  1.063654  33.078656  11.418498  6.478402
  14353.001  14353.000  0.500  1.065487  33.082732  11.398991  6.464361
  14353.289  14353.300  0.500  1.067315  33.073882  11.375128  6.448088
  14353.613  14353.600  0.500  1.069397  33.074482  11.351678  6.427874
  14353.892  14353.900  0.500  1.071512  33.066942  11.325104  6.410062
  14354.199  14354.200  0.500  1.073712  33.067103  11.300277  6.391545
  14354.496  14354.500  0.500  1.075817  33.060360  11.274216  6.371562
  14354.811  14354.800  0.500  1.078318  33.054576  11.244087  6.349912
  14355.099  14355.100  0.500  1.080737  33.054770  11.216987  6.328289
  14355.379  14355.400  0.500  1.083152  33.063071  11.192741  6.310544
  14355.685  14355.700  0.500  1.085886  33.059136  11.160844  6.286147
  14355.982  14356.000  0.500  1.088608  33.049549  11.127286  6.263773
  14356.289  14356.300  0.500  1.091421  33.044781  11.094426  6.236962
  14356.586  14356.600  0.500  1.094238  33.036594  11.060470  6.213110
  14356.883  14356.900  0.500  1.097202  33.029245  11.025282  6.188120
  14357.172  14357.200  0.500  1.100167  33.026798  10.991832  6.162951
  14357.496  14357.500  0.500  1.103019  33.017975  10.957602  6.137335
  14357.784  14357.800  0.500  1.106122  33.021640  10.924861  6.112673
  14358.091  14358.100  0.500  1.109055  32.989749  10.882350  6.084108
  14358.397  14358.400  0.500  1.112074  32.979468  10.846160  6.056462
  14358.694  14358.700  0.500  1.115048  32.957237  10.806666  6.030780
  14359.010  14359.000  0.500  1.118235  32.942141  10.767345  6.000620
  14359.298  14359.300  0.500  1.120802  32.920706  10.732749  5.977712
  14359.605  14359.600  0.500  1.123851  32.920560  10.700028  5.952194
  14359.893  14359.900  0.500  1.126672  32.926988  10.671969  5.931120
  14360.218  14360.200  0.500  1.129756  32.942434  10.644096  5.909347
  14360.506  14360.500  0.500  1.132688  32.950749  10.615617  5.888031
  14360.813  14360.800  0.500  1.135819  32.973368  10.589692  5.868105
  14361.092  14361.100  0.500  1.138617  32.978436  10.561724  5.846559
  14361.408  14361.400  0.500  1.141746  32.991368  10.532864  5.824950
  14361.714  14361.700  0.500  1.144632  32.978467  10.498401  5.800515
  14361.985  14362.000  0.500  1.147612  32.986604  10.469740  5.779215
  14362.291  14362.300  0.500  1.150559  33.001054  10.443504  5.758598
  14362.598  14362.600  0.500  1.153480  33.000221  10.412784  5.735011
  14362.905  14362.900  0.500  1.156712  32.980372  10.372942  5.708015
  14363.175  14363.200  0.500  1.159500  32.985476  10.345666  5.686766
  14363.482  14363.500  0.500  1.162579  32.978697  10.311734  5.663039
  14363.779  14363.800  0.500  1.165148  32.987105  10.287904  5.644091
  14364.086  14364.100  0.500  1.168460  32.977610  10.250934  5.618990
  14364.393  14364.400  0.500  1.171056  32.969879  10.221958  5.596596
  14364.690  14364.700  0.500  1.174145  32.972119  10.191129  5.575754
  14364.997  14365.000  0.500  1.176595  32.975611  10.167270  5.556837
  14365.286  14365.300  0.500  1.179291  32.963609  10.136203  5.535977
  14365.592  14365.600  0.500  1.181836  32.965456  10.111007  5.517601
  14365.890  14365.900  0.500  1.184263  32.950250  10.081841  5.498010
  14366.206  14366.200  0.500  1.186552  32.945755  10.057416  5.480090
  14366.504  14366.500  0.500  1.188406  32.946209  10.038923  5.467604
  14366.819  14366.800  0.500  1.190510  32.923741  10.010997  5.447105
  14367.099  14367.100  0.500  1.192096  32.910160  9.991006  5.433635
  14367.424  14367.400  0.500  1.193770  32.903369  9.972242  5.421294
  14367.695  14367.700  0.500  1.195253  32.889223  9.953184  5.408083
  14368.020  14368.000  0.500  1.196262  32.890000  9.943379  5.398837
  14368.308  14368.300  0.500  1.197540  32.869697  9.924546  5.389704
  14368.606  14368.600  0.500  1.198287  32.872157  9.917876  5.383232
  14368.922  14368.900  0.500  1.198879  32.869476  9.911197  5.377692
  14369.193  14369.200  0.500  1.199636  32.874621  9.905247  5.374167
  14369.509  14369.500  0.500  1.200161  32.888011  9.904079  5.371945
  14369.798  14369.800  0.500  1.200554  32.897148  9.902940  5.371178
  14370.086  14370.100  0.500  1.200638  32.904233  9.904246  5.369449
  14370.384  14370.400  0.500  1.200769  32.908841  9.904335  5.370903
  14370.691  14370.700  0.500  1.200767  32.919913  9.907682  5.374044
  14371.007  14371.000  0.500  1.200733  32.900551  9.902192  5.371496
  14371.278  14371.300  0.500  1.200395  32.902925  9.906256  5.372980
  14371.585  14371.600  0.500  1.200092  32.902771  9.909208  5.376240
  14371.892  14371.900  0.500  1.199613  32.897310  9.912318  5.377470
  14372.199  14372.200  0.500  1.199136  32.895430  9.916473  5.380394
  14372.488  14372.500  0.500  1.198717  32.900648  9.922209  5.385406
  14372.795  14372.800  0.500  1.198208  32.906604  9.929053  5.390049
  14373.075  14373.100  0.500  1.197579  32.896542  9.932266  5.392010
  14373.391  14373.400  0.500  1.196867  32.903788  9.941527  5.399593
  14373.716  14373.700  0.500  1.196199  32.887883  9.943367  5.400005
  14373.996  14374.000  0.500  1.195527  32.883970  9.948865  5.405605
  14374.312  14374.300  0.500  1.194753  32.883323  9.956366  5.411190
  14374.601  14374.600  0.500  1.193881  32.873627  9.962115  5.415850
  14374.936  14374.900  0.500  1.193170  32.862089  9.965705  5.419213
  14375.207  14375.200  0.500  1.192124  32.855344  9.974089  5.425966
  14375.514  14375.500  0.500  1.191255  32.846771  9.980150  5.430128
  14375.794  14375.800  0.500  1.190446  32.850278  9.989294  5.437500
  14376.110  14376.100  0.500  1.189546  32.827947  9.991491  5.438901
  14376.426  14376.400  0.500  1.188445  32.807298  9.996206  5.443118
  14376.697  14376.700  0.500  1.187816  32.795758  9.998985  5.447852
  14376.995  14377.000  0.500  1.186704  32.783118  10.006248  5.452629
  14377.294  14377.300  0.500  1.185829  32.785693  10.015790  5.459330
  14377.592  14377.600  0.500  1.185163  32.793214  10.024764  5.465977
  14377.800  14377.800  0.500  1.184509  32.789487  10.030184  5.470899
  14378.785  14378.790  0.500  1.181916  32.816946  10.064649  5.492957
  14379.797  14379.790  0.500  1.179892  32.837553  10.091370  5.513388
  14380.819  14380.810  0.500  1.178509  32.828552  10.102568  5.521150
  14381.876  14381.860  0.500  1.177827  32.813159  10.104719  5.522290
  14382.952  14382.920  0.500  1.178231  32.815290  10.101293  5.519312
  14384.029  14384.000  0.500  1.179644  32.793688  10.080396  5.507161
  14385.132  14385.100  0.500  1.181777  32.759306  10.048369  5.485348
  14386.236  14386.220  0.500  1.184237  32.726467  10.013625  5.461035
  14387.358  14387.360  0.500  1.187371  32.730946  9.983665  5.439495
  14388.525  14388.510  0.500  1.190938  32.764927  9.958438  5.419190
  14389.711  14389.690  0.500  1.194157  32.764257  9.926230  5.395633
  14390.897  14390.880  0.500  1.196922  32.755559  9.896200  5.374450
  14392.119  14392.100  0.500  1.199185  32.752184  9.872816  5.359479
  14393.360  14393.330  0.500  1.200188  32.732223  9.856900  5.348218
  14394.601  14394.580  0.500  1.200087  32.733837  9.858380  5.348790
  14395.860  14395.850  0.500  1.198856  32.715730  9.865070  5.355162
  14397.146  14397.140  0.500  1.197167  32.708390  9.879523  5.367108
  14398.479  14398.450  0.500  1.194141  32.697640  9.906209  5.387262
  14399.802  14399.780  0.500  1.190825  32.705552  9.941516  5.411653
  14401.162  14401.130  0.500  1.187428  32.805637  10.005874  5.453625
  14402.522  14402.500  0.500  1.184816  32.800763  10.030558  5.470916
  14403.918  14403.880  0.500  1.182894  32.787064  10.045655  5.482878
  14405.288  14405.290  0.500  1.181611  32.778254  10.055847  5.490093
  14406.704  14406.710  0.500  1.180895  32.759297  10.057227  5.494264
  14408.155  14408.150  0.500  1.180556  32.761678  10.061366  5.495879
  14409.626  14409.610  0.500  1.180498  32.729146  10.051961  5.492151
  14411.105  14411.090  0.500  1.180616  32.630365  10.020444  5.473435
  14412.631  14412.590  0.500  1.180778  32.584677  10.004793  5.466200
  14414.120  14414.110  0.500  1.180907  32.663272  10.027634  5.478560
  14415.628  14415.650  0.500  1.181326  32.689258  10.031400  5.478982
  14417.218  14417.210  0.500  1.181832  32.683883  10.024677  5.475415
  14418.818  14418.780  0.500  1.182003  32.684095  10.023035  5.473506
  14420.381  14420.380  0.500  1.182640  32.660369  10.009380  5.464652
  14422.009  14421.990  0.500  1.183028  32.554257  9.972985  5.443626
  14423.627  14423.630  0.500  1.183408  32.485043  9.947999  5.429810
  14425.283  14425.280  0.500  1.184230  32.619188  9.980871  5.446704
  14426.948  14426.950  0.500  1.184842  32.623428  9.976060  5.442363
  14428.659  14428.640  0.500  1.185475  32.605224  9.964190  5.436568
  14430.361  14430.350  0.500  1.185700  32.588035  9.956697  5.431193
  14432.109  14432.080  0.500  1.185552  32.532243  9.941125  5.422928
  14433.848  14433.830  0.500  1.184920  32.395054  9.905458  5.404814
  14435.588  14435.590  0.500  1.183898  32.529026  9.956592  5.435421
  14437.383  14437.380  0.500  1.182245  32.561090  9.982897  5.451340
  14439.197  14439.180  0.500  1.180428  32.544576  9.995979  5.462107
  14441.047  14441.010  0.500  1.178308  32.538812  10.015413  5.475321
  14442.871  14442.850  0.500  1.176630  32.507214  10.022495  5.484337
  14444.704  14444.710  0.500  1.175145  32.430291  10.013637  5.482555
  14446.584  14446.590  0.500  1.173863  32.357974  10.004128  5.480250
  14448.500  14448.490  0.500  1.172924  32.463264  10.046103  5.504799
  14450.435  14450.410  0.500  1.172212  32.458263  10.051717  5.510074
  14452.362  14452.350  0.500  1.171708  32.447836  10.053546  5.510528
  14454.316  14454.310  0.500  1.171428  32.423235  10.048737  5.509520
  14456.299  14456.280  0.500  1.171085  32.417546  10.050421  5.509773
  14458.281  14458.280  0.500  1.170771  32.394414  10.046403  5.509309
  14460.292  14460.290  0.500  1.170274  32.387860  10.049368  5.511337
  14462.340  14462.320  0.500  1.169875  32.365304  10.046377  5.512310
  14464.362  14464.380  0.500  1.168919  32.349225  10.050991  5.514438
  14466.438  14466.450  0.500  1.168213  32.340107  10.055248  5.519093
  14468.543  14468.540  0.500  1.167196  32.319146  10.058957  5.522787
  14470.657  14470.650  0.500  1.166574  32.308118  10.061784  5.526717
  14472.773  14472.780  0.500  1.165897  32.293337  10.063990  5.529374
  14474.861  14474.920  0.500  1.165449  32.274977  10.062774  5.529157
  14477.078  14477.090  0.500  1.165207  32.266048  10.062430  5.529231
  14479.250  14479.280  0.500  1.164928  32.245622  10.058860  5.528062
  14481.450  14481.480  0.500  1.164937  32.183313  10.039334  5.518787
  14483.651  14483.700  0.500  1.164798  32.198411  10.045443  5.521305
  14485.908  14485.950  0.500  1.164902  32.196073  10.043664  5.519604
  14488.183  14488.210  0.500  1.164783  32.176018  10.038604  5.518055
  14490.469  14490.490  0.500  1.164468  32.163056  10.037723  5.517261
  14492.746  14492.790  0.500  1.164070  32.163776  10.041949  5.521590
  14495.060  14495.110  0.500  1.163284  32.140670  10.042619  5.522837
  14497.403  14497.450  0.500  1.162408  32.117146  10.044064  5.524477
  14500.197  14499.800  0.500  1.161463  32.088490  10.044588  5.527463
  14502.100  14502.180  0.500  1.160682  32.071467  10.047110  5.530432
  14504.694  14504.570  0.500  1.159764  32.057360  10.051909  5.535774
  14507.123  14506.990  0.500  1.158840  32.039771  10.055680  5.539468
  14509.433  14509.420  0.500  1.157823  32.023218  10.060719  5.545191
  14511.845  14511.870  0.500  1.156702  31.995714  10.063348  5.548570
  14514.331  14514.350  0.500  1.155669  31.990307  10.072042  5.555495
  14516.837  14516.840  0.500  1.154744  31.926547  10.061271  5.550180
  14519.325  14519.350  0.500  1.153981  31.954834  10.077872  5.562584
  14521.879  14521.870  0.500  1.153275  31.938885  10.079959  5.565587
  14524.406  14524.420  0.500  1.152435  31.928107  10.085024  5.568947
  14526.961  14526.990  0.500  1.151417  31.917483  10.091934  5.573772
  14529.555  14529.570  0.500  1.150358  31.882743  10.091631  5.576465
  14532.167  14532.180  0.500  1.149374  31.883773  10.101893  5.584944
  14534.809  14534.800  0.500  1.148336  31.851722  10.102221  5.587016
  14537.469  14537.450  0.500  1.147454  31.832949  10.105182  5.588633
  14540.103  14540.110  0.500  1.147149  31.828207  10.106757  5.590852
  14542.785  14542.790  0.500  1.147085  31.798930  10.098101  5.587830
  14545.458  14545.490  0.500  1.147058  31.772480  10.089973  5.582631
  14548.187  14548.210  0.500  1.147271  31.755202  10.082340  5.578426
  14550.945  14550.950  0.500  1.147134  31.696948  10.065226  5.569114
  14553.714  14553.700  0.500  1.146918  31.729800  10.077834  5.576129
  14556.493  14556.480  0.500  1.146662  31.693974  10.069036  5.571559
  14559.264  14559.270  0.500  1.146354  31.678773  10.067302  5.571968
  14562.091  14562.090  0.500  1.145744  31.659816  10.067417  5.572885
  14564.910  14564.920  0.500  1.145015  31.646249  10.070440  5.576423
  14567.768  14567.770  0.500  1.144281  31.617963  10.068827  5.577380
  14570.654  14570.650  0.500  1.143437  31.609795  10.074724  5.582462
  14573.542  14573.540  0.500  1.142339  31.568137  10.072499  5.582844
  14576.449  14576.450  0.500  1.141068  31.555434  10.081260  5.590645
  14579.349  14579.370  0.500  1.139595  31.532279  10.088708  5.596456
  14582.286  14582.320  0.500  1.138063  31.518562  10.099784  5.605966
  14585.281  14585.290  0.500  1.136562  31.488066  10.105166  5.612291
  14588.295  14588.270  0.500  1.135160  31.473354  10.114615  5.622668
  14591.302  14591.280  0.500  1.133665  31.459146  10.125175  5.630582
  14594.328  14594.300  0.500  1.132195  31.431240  10.131078  5.635761
  14597.365  14597.350  0.500  1.131131  31.405519  10.133555  5.639577
  14600.412  14600.410  0.500  1.130156  31.387053  10.137485  5.643499
  14603.489  14603.490  0.500  1.129331  31.371802  10.140922  5.646758
  14606.605  14606.590  0.500  1.128582  31.338930  10.137882  5.647565
  14609.731  14609.710  0.500  1.128210  31.317608  10.134753  5.646478
  14612.830  14612.850  0.500  1.127773  31.296545  10.132364  5.644481
  14615.968  14616.000  0.500  1.127398  31.240540  10.118026  5.638313
  14619.182  14619.180  0.500  1.127151  31.257426  10.125993  5.643976
  14622.389  14622.370  0.500  1.126753  31.235166  10.122815  5.644615
  14625.596  14625.590  0.500  1.125797  31.214847  10.125903  5.646648
  14628.815  14628.820  0.500  1.125051  31.202060  10.129306  5.650559
  14632.044  14632.070  0.500  1.124240  31.177328  10.129488  5.651775
  14635.368  14635.350  0.500  1.123629  31.155188  10.128485  5.653333
  14638.657  14638.640  0.500  1.122995  31.128539  10.126242  5.653156
  14641.965  14641.950  0.500  1.122178  31.102319  10.125984  5.655068
  14645.248  14645.270  0.500  1.121498  31.044261  10.113953  5.650053
  14648.625  14648.620  0.500  1.120386  31.061385  10.130795  5.661916
  14652.004  14651.990  0.500  1.119129  31.036766  10.135497  5.666797
  14655.394  14655.370  0.500  1.117766  31.009843  10.140516  5.671110
  14658.766  14658.780  0.500  1.116391  30.953625  10.136055  5.672031
  14662.197  14662.200  0.500  1.114669  30.953592  10.153521  5.683352
  14665.658  14665.650  0.500  1.113361  30.886894  10.144898  5.683351
  14669.129  14669.110  0.500  1.112080  30.918601  10.168330  5.698860
  14672.583  14672.590  0.500  1.110675  30.891456  10.173687  5.704670
  14676.096  14676.090  0.500  1.109565  30.874314  10.179339  5.709268
  14679.629  14679.610  0.500  1.108954  30.846405  10.176343  5.711135
  14683.145  14683.150  0.500  1.108277  30.800616  10.168122  5.706188
  14686.710  14686.700  0.500  1.107967  30.748636  10.154108  5.700713
  14690.295  14690.280  0.500  1.107317  30.775153  10.169477  5.709280
  14693.901  14693.880  0.500  1.106659  30.752528  10.168690  5.710167
  14697.500  14697.490  0.500  1.105892  30.740861  10.172628  5.714469
  14701.138  14701.120  0.500  1.105011  30.705624  10.169922  5.714899
  14704.797  14704.780  0.500  1.104175  30.679948  10.169921  5.716142
  14708.476  14708.450  0.500  1.103083  30.645619  10.169636  5.720098
  14712.167  14712.140  0.500  1.102004  30.631119  10.175805  5.724225
  14715.869  14715.850  0.500  1.100898  30.610151  10.180083  5.729084
  14719.583  14719.580  0.500  1.099990  30.583615  10.180504  5.731486
  14723.345  14723.320  0.500  1.099206  30.560793  10.180881  5.734506
  14727.120  14727.090  0.500  1.098124  30.533735  10.182883  5.737254
  14730.877  14730.880  0.500  1.097040  30.501776  10.183261  5.737586
  14734.664  14734.680  0.500  1.095961  30.424201  10.168321  5.734904
  14738.540  14738.510  0.500  1.094659  30.346414  10.155544  5.729178
  14742.379  14742.350  0.500  1.093400  30.417910  10.192290  5.752369
  14746.239  14746.210  0.500  1.092191  30.398725  10.198188  5.758365
  14750.101  14750.090  0.500  1.090826  30.388861  10.208800  5.766590
  14754.032  14753.990  0.500  1.089402  30.354334  10.211735  5.770332
  14757.946  14757.910  0.500  1.088168  30.319650  10.212660  5.774035
  14761.853  14761.850  0.500  1.087015  30.307416  10.220314  5.781427
  14765.828  14765.810  0.500  1.085640  30.235823  10.210203  5.776686
  14769.805  14769.780  0.500  1.084663  30.243962  10.222936  5.786517
  14773.785  14773.780  0.500  1.083901  30.222724  10.223545  5.790226
  14777.796  14777.790  0.500  1.082762  30.191067  10.224470  5.792147
  14781.847  14781.830  0.500  1.082008  30.164235  10.223089  5.792398
  14785.919  14785.880  0.500  1.081455  30.126277  10.215870  5.790737
  14789.955  14789.950  0.500  1.080496  29.909774  10.152185  5.756418
  14794.042  14794.040  0.500  1.079663  30.088062  10.221217  5.798089
  14798.169  14798.150  0.500  1.078379  30.068077  10.227552  5.801648
  14802.308  14802.280  0.500  1.077716  30.036444  10.223561  5.803177
  14806.420  14806.430  0.500  1.076677  30.003787  10.223070  5.805143
  14810.612  14810.590  0.500  1.075485  29.978183  10.226528  5.810089
  14814.796  14814.780  0.500  1.074341  29.947448  10.227738  5.812314
  14819.011  14818.980  0.500  1.073484  29.917933  10.226410  5.814574
  14823.220  14823.210  0.500  1.072100  29.899035  10.234108  5.820483
  14827.498  14827.450  0.500  1.070726  29.866038  10.236873  5.824350
  14831.740  14831.710  0.500  1.069611  29.832053  10.236626  5.828033
  14835.994  14835.990  0.500  1.068324  29.780624  10.232140  5.827472
  14840.289  14840.290  0.500  1.066910  29.683589  10.213238  5.820956
  14844.645  14844.610  0.500  1.065776  29.743744  10.245547  5.840285
  14848.983  14848.950  0.500  1.064347  29.711090  10.248933  5.845257
  14853.325  14853.310  0.500  1.063043  29.690568  10.255218  5.850999
  14857.707  14857.690  0.500  1.061760  29.658930  10.257439  5.855327
  14862.131  14862.080  0.500  1.060846  29.699575  10.280891  5.871385
  14866.509  14866.500  0.500  1.059707  29.703799  10.294068  5.881708
  14870.967  14870.930  0.500  1.058467  29.665061  10.293403  5.882738
  14875.409  14875.380  0.500  1.057481  29.645427  10.296732  5.887503
  14879.862  14879.850  0.500  1.056376  29.617607  10.298444  5.891431
  14884.358  14884.340  0.500  1.055304  29.584811  10.298077  5.892376
  14888.885  14888.850  0.500  1.054446  29.549069  10.294466  5.893862
  14893.386  14893.380  0.500  1.053334  29.278352  10.211503  5.848493
  14897.947  14897.930  0.500  1.052307  29.485596  10.294346  5.897581
  14902.580  14902.500  0.500  1.051101  29.465980  10.299913  5.904379
  14907.118  14907.080  0.500  1.049860  29.433485  10.301331  5.906040
  14911.718  14911.690  0.500  1.048582  29.408823  10.305862  5.911447
  14916.349  14916.310  0.500  1.047460  29.376702  10.306161  5.914661
  14921.003  14920.960  0.500  1.046235  29.341903  10.306570  5.918159
  14925.601  14925.620  0.500  1.044798  29.315815  10.312219  5.923850
  14930.339  14930.300  0.500  1.043585  29.290294  10.315740  5.927853
  14935.021  14935.000  0.500  1.042220  29.219774  10.304961  5.925166
  14939.736  14939.720  0.500  1.040798  29.229566  10.323084  5.938592
  14944.492  14944.460  0.500  1.039602  29.196848  10.323871  5.942742
  14949.232  14949.210  0.500  1.038296  29.168177  10.327214  5.946041
  14953.995  14953.990  0.500  1.036973  29.139269  10.330635  5.951447
  14958.829  14958.790  0.500  1.035683  29.106413  10.332310  5.955456
  14963.617  14963.600  0.500  1.034497  29.073562  10.332893  5.959003
  14968.448  14968.430  0.500  1.033178  29.047421  10.337228  5.964682
  14973.331  14973.290  0.500  1.032111  28.968713  10.320219  5.956798
  14978.207  14978.160  0.500  1.030825  28.967622  10.333112  5.967250
  14983.087  14983.050  0.500  1.029807  28.935040  10.332009  5.969599
  14988.009  14987.960  0.500  1.028281  28.903032  10.336333  5.972776
  14992.905  14992.890  0.500  1.027210  28.870972  10.335936  5.976334
  14997.853  14997.830  0.500  1.025942  28.846877  10.340415  5.980071
  15002.834  15002.800  0.500  1.024768  28.822773  10.343905  5.987181
  15007.808  15007.790  0.500  1.023717  28.790194  10.343086  5.988349
  15012.796  15012.790  0.500  1.022464  28.765367  10.347118  5.993524
  15017.846  15017.820  0.500  1.021145  28.723243  10.345609  5.994077
  15022.890  15022.860  0.500  1.019854  28.691698  10.347588  5.998322
  15027.987  15027.920  0.500  1.018735  28.644448  10.342115  5.997345
  15033.048  15033.000  0.500  1.017362  28.631323  10.351583  6.005356
  15038.112  15038.100  0.500  1.016071  28.595889  10.352123  6.010251
  15043.268  15043.220  0.500  1.014555  28.566230  10.357074  6.014976
  15048.399  15048.360  0.500  1.013207  28.540712  10.361782  6.020987
  15053.523  15053.520  0.500  1.011889  28.498066  10.359952  6.022660
  15058.739  15058.700  0.500  1.010392  28.464751  10.363341  6.028418
  15063.900  15063.890  0.500  1.008963  28.437226  10.368128  6.033230
  15069.115  15069.110  0.500  1.007534  28.400949  10.369701  6.036765
  15074.372  15074.340  0.500  1.006291  28.371509  10.371837  6.042763
  15079.594  15079.590  0.500  1.004903  28.330037  10.371063  6.044088
  15084.879  15084.860  0.500  1.003548  28.298951  10.373734  6.050077
  15090.187  15090.150  0.500  1.002294  28.270980  10.376478  6.054711
  15095.450  15095.460  0.500  1.000651  28.237295  10.381160  6.059716
  15100.796  15100.790  0.500  0.999627  28.199602  10.377919  6.059391
  15106.145  15106.140  0.500  0.998316  28.165174  10.378850  6.064791
  15111.529  15111.510  0.500  0.997061  28.129406  10.378686  6.067772
  15116.916  15116.890  0.500  0.995591  28.099848  10.383037  6.072370
  15122.318  15122.300  0.500  0.994582  28.069814  10.382406  6.073770
  15127.733  15127.720  0.500  0.993046  28.036697  10.386097  6.080537
  15133.212  15133.170  0.500  0.991786  28.008265  10.388653  6.083943
  15138.656  15138.630  0.500  0.990561  27.966802  10.385981  6.085588
  15144.163  15144.110  0.500  0.988995  27.929265  10.388299  6.088513
  15149.674  15149.610  0.500  0.987850  27.887567  10.384672  6.090372
  15155.140  15155.130  0.500  0.986409  27.863387  10.390630  6.097650
  15160.709  15160.670  0.500  0.985106  27.775947  10.371533  6.089185
  15166.263  15166.220  0.500  0.983721  27.778748  10.386953  6.100792
  15171.811  15171.800  0.500  0.982271  27.758806  10.394559  6.107925
  15177.433  15177.400  0.500  0.980942  27.722623  10.394812  6.112270
  15183.050  15183.010  0.500  0.979451  27.692469  10.398996  6.118548
  15188.691  15188.650  0.500  0.977963  27.650691  10.398767  6.121036
  15194.356  15194.300  0.500  0.976490  27.617069  10.401438  6.124962
  15200.036  15199.970  0.500  0.974986  27.578558  10.402563  6.129644
  15205.669  15205.660  0.500  0.973721  27.552218  10.405788  6.134919
