# XDI/1.0 BlueSky/1.10.0 BMM/2023-1.0-py310-tiled
# Beamline.name: BMM (06BM) -- Beamline for Materials Measurement (NIST)
# Beamline.xray_source: NSLS-II three-pole wiggler
# Beamline.collimation: paraboloid mirror, 5 nm Rh on 30 nm Pt
# Beamline.focusing: not in use
# Beamline.harmonic_rejection: flat mirror, Pt stripe, pitch = 7.0 mrad relative to beam
# Beamline.software: Bluesky 1.10.0, Ophyd 1.7.0, DataBroker 2.0.0b13, Python 3.10.8, 2023-1.0-py310-tiled
# Detector.I0: 10 cm N2
# Detector.I1: 25 cm N2
# Detector.I2: 25 cm N2
# Element.symbol: Au
# Element.edge: L1
# Element.reference: Au
# Element.reference_material: Au foil
# Facility.name: NSLS-II
# Facility.energy: 3.0
# Facility.current: 399.2
# Facility.mode: top-off
# Facility.GUP: 301027
# Facility.SAF: 310583
# Facility.cycle: 2023-2
# Mono.name: Si(111)
# Mono.d_spacing: 3.1351860
# Mono.encoder_resolution: 0.0000050 deg/ct
# Mono.angle_offset: 16.0754326 deg
# Mono.scan_mode: pseudo channel cut
# Mono.scan_type: step
# Mono.direction: forward in energy
# Sample.name: AuH2Na3O6S4+, gold thiosulfate
# Sample.prep: powder in BN pellet
# Sample.x: 145.711 mm
# Sample.y: 114.376 mm
# Sample.SDD_position: 205.000 mm
# Scan.experimenters: Bruce Ravel
# Scan.edge_energy: 14352.8
# Scan.start_time: 2023-06-27T20:19:36
# Scan.end_time: 2023-06-27T20:27:27
# Scan.transient_id: 85293
# Scan.uid: 289ddec2-cfc7-4133-a3b1-768e51580132
# Scan.plot_hint: ln(I0/It)  --  ln($5/$6)
# Column.1: energy eV
# Column.2: requested_energy eV
# Column.3: measurement_time seconds
# Column.4: xmu 
# Column.5: I0 nA
# Column.6: It nA
# Column.7: Ir nA
# ///////////
# Welcome to BMM
# -----------
# energy  requested_energy  measurement_time  xmu  I0  It  Ir
  14152.739  14152.800  0.500  1.061696  34.507227  11.934965  6.743869
  14162.830  14162.800  0.500  1.059151  34.401113  11.928593  6.748531
  14172.839  14172.800  0.500  1.056020  34.620034  12.042139  6.816284
  14182.845  14182.800  0.500  1.052804  34.507981  12.041829  6.820533
  14192.882  14192.800  0.500  1.050006  34.436387  12.050523  6.831314
  14202.864  14202.800  0.500  1.046910  34.337971  12.053345  6.837859
  14212.877  14212.800  0.500  1.044076  34.266077  12.062243  6.848843
  14222.887  14222.800  0.500  1.041552  34.186863  12.064767  6.856519
  14232.903  14232.800  0.500  1.039185  34.121408  12.070209  6.867576
  14242.826  14242.800  0.500  1.036760  34.028762  12.066658  6.872878
  14252.852  14252.800  0.500  1.034811  33.953959  12.063624  6.879960
  14262.839  14262.800  0.500  1.032434  33.850830  12.055609  6.880040
  14272.867  14272.800  0.500  1.030804  31.989614  11.411339  6.516960
  14282.828  14282.800  0.500  1.028233  33.748632  12.069810  6.900361
  14292.867  14292.800  0.500  1.026001  33.677907  12.071424  6.903881
  14302.866  14302.800  0.500  1.023816  33.571549  12.059619  6.900971
  14312.852  14312.800  0.500  1.022125  33.533683  12.066411  6.908335
  14322.888  14322.800  0.500  1.021019  33.445026  12.047828  6.897625
  14324.816  14324.800  0.500  1.020799  33.445305  12.050577  6.900088
  14326.808  14326.800  0.500  1.020892  33.421918  12.041033  6.896606
  14328.791  14328.800  0.500  1.021076  33.409107  12.034198  6.893712
  14330.783  14330.800  0.500  1.020872  33.389901  12.029736  6.888148
  14332.804  14332.800  0.500  1.021264  33.369690  12.017742  6.881602
  14334.815  14334.800  0.500  1.021520  33.371547  12.015328  6.880237
  14336.810  14336.800  0.500  1.021956  33.363118  12.007061  6.873494
  14338.787  14338.800  0.500  1.022638  33.338672  11.990084  6.861585
  14340.800  14340.800  0.500  1.023637  33.331725  11.975623  6.850556
  14342.787  14342.800  0.500  1.025080  33.317079  11.953097  6.834705
  14343.057  14343.100  0.500  1.025216  33.296205  11.943985  6.828306
  14343.372  14343.400  0.500  1.025535  33.293850  11.939326  6.826435
  14343.668  14343.700  0.500  1.025750  33.280688  11.932045  6.822288
  14343.974  14344.000  0.500  1.026054  33.271874  11.925255  6.817835
  14344.262  14344.300  0.500  1.026373  33.277168  11.923343  6.814038
  14344.550  14344.600  0.500  1.026673  33.260996  11.913978  6.808951
  14344.883  14344.900  0.500  1.027248  33.259604  11.906633  6.804753
  14345.180  14345.200  0.500  1.027418  33.256950  11.903653  6.800210
  14345.476  14345.500  0.500  1.027751  33.270803  11.904647  6.800620
  14345.791  14345.800  0.500  1.028241  33.268439  11.897970  6.794534
  14346.070  14346.100  0.500  1.028654  33.276870  11.896072  6.793104
  14346.376  14346.400  0.500  1.029146  33.268286  11.887151  6.787078
  14346.682  14346.700  0.500  1.029589  33.267251  11.881523  6.782991
  14346.961  14347.000  0.500  1.030086  33.266012  11.875179  6.778783
  14347.267  14347.300  0.500  1.030577  33.275885  11.872875  6.775373
  14347.564  14347.600  0.500  1.031279  33.266477  11.861181  6.766896
  14347.852  14347.900  0.500  1.031824  33.265437  11.854353  6.762692
  14348.176  14348.200  0.500  1.032392  33.266618  11.848037  6.756155
  14348.464  14348.500  0.500  1.033071  33.259777  11.837564  6.748321
  14348.770  14348.800  0.500  1.033754  33.260792  11.829837  6.742706
  14349.076  14349.100  0.500  1.034595  33.255328  11.817953  6.735163
  14349.364  14349.400  0.500  1.035319  33.255909  11.809613  6.727076
  14349.661  14349.700  0.500  1.036414  33.259326  11.797894  6.720950
  14349.976  14350.000  0.500  1.037161  33.253020  11.786855  6.712832
  14350.282  14350.300  0.500  1.038054  33.242666  11.772668  6.700220
  14350.588  14350.600  0.500  1.039110  33.243953  11.760698  6.690890
  14350.885  14350.900  0.500  1.040027  33.239612  11.748380  6.680571
  14351.182  14351.200  0.500  1.041167  33.241781  11.735758  6.673113
  14351.506  14351.500  0.500  1.042626  33.236121  11.716652  6.658156
  14351.785  14351.800  0.500  1.043855  33.239414  11.703424  6.649160
  14352.100  14352.100  0.500  1.045181  33.230509  11.684787  6.633646
  14352.397  14352.400  0.500  1.046511  33.225304  11.667429  6.620049
  14352.695  14352.700  0.500  1.048052  33.224667  11.649240  6.606824
  14353.010  14353.000  0.500  1.049966  33.236557  11.631118  6.592072
  14353.298  14353.300  0.500  1.051683  33.213661  11.603175  6.573409
  14353.604  14353.600  0.500  1.053520  33.217624  11.583256  6.557856
  14353.901  14353.900  0.500  1.055347  33.206885  11.558372  6.538077
  14354.190  14354.200  0.500  1.057529  33.201572  11.531334  6.518937
  14354.514  14354.500  0.500  1.059900  33.206444  11.505722  6.499469
  14354.784  14354.800  0.500  1.061845  33.202513  11.481995  6.480527
  14355.090  14355.100  0.500  1.064438  33.202254  11.452179  6.458733
  14355.388  14355.400  0.500  1.067119  33.202293  11.421528  6.437759
  14355.685  14355.700  0.500  1.069895  33.212591  11.393393  6.415626
  14355.991  14356.000  0.500  1.072599  33.192174  11.355644  6.388525
  14356.271  14356.300  0.500  1.075397  33.193643  11.324418  6.366907
  14356.586  14356.600  0.500  1.078522  33.188030  11.287182  6.338759
  14356.874  14356.900  0.500  1.081161  33.181762  11.255303  6.314743
  14357.172  14357.200  0.500  1.084249  33.179164  11.219720  6.288461
  14357.487  14357.500  0.500  1.087191  33.166888  11.182620  6.260767
  14357.775  14357.800  0.500  1.090164  33.153839  11.145036  6.234033
  14358.100  14358.100  0.500  1.093346  33.141046  11.105346  6.206725
  14358.370  14358.400  0.500  1.095774  33.123583  11.072578  6.183220
  14358.703  14358.700  0.500  1.098614  33.099082  11.033014  6.153251
  14358.992  14359.000  0.500  1.101023  33.092659  11.004324  6.131372
  14359.298  14359.300  0.500  1.103401  33.074137  10.972046  6.106086
  14359.614  14359.600  0.500  1.105838  33.077991  10.946611  6.087831
  14359.911  14359.900  0.500  1.108034  33.077831  10.922553  6.068822
  14360.209  14360.200  0.500  1.110238  33.085696  10.901088  6.049923
  14360.506  14360.500  0.500  1.111736  33.090775  10.886442  6.035592
  14360.804  14360.800  0.500  1.113723  33.115165  10.872847  6.021520
  14361.101  14361.100  0.500  1.115447  33.128186  10.858387  6.010120
  14361.417  14361.400  0.500  1.116932  33.126291  10.841652  5.992957
  14361.714  14361.700  0.500  1.118293  33.133564  10.829278  5.980270
  14362.003  14362.000  0.500  1.119860  33.136152  10.813168  5.965815
  14362.318  14362.300  0.500  1.121340  33.138368  10.797898  5.951813
  14362.589  14362.600  0.500  1.122772  33.138670  10.782548  5.937241
  14362.914  14362.900  0.500  1.124034  33.130557  10.766314  5.921728
  14363.193  14363.200  0.500  1.125183  33.124089  10.751848  5.907247
  14363.491  14363.500  0.500  1.126580  33.136422  10.740835  5.896105
  14363.770  14363.800  0.500  1.128076  33.120583  10.719655  5.880259
  14364.086  14364.100  0.500  1.129285  33.124271  10.707889  5.868519
  14364.402  14364.400  0.500  1.130648  33.117679  10.691182  5.852515
  14364.681  14364.700  0.500  1.131897  33.113058  10.676345  5.840026
  14364.988  14365.000  0.500  1.133079  33.110172  10.662809  5.824930
  14365.268  14365.300  0.500  1.134262  33.117431  10.652535  5.815748
  14365.610  14365.600  0.500  1.135524  33.112279  10.637448  5.803384
  14365.899  14365.900  0.500  1.136519  33.097607  10.622160  5.789612
  14366.197  14366.200  0.500  1.137481  33.094221  10.610858  5.777704
  14366.486  14366.500  0.500  1.138576  33.089000  10.597571  5.769170
  14366.810  14366.800  0.500  1.139503  33.089030  10.587767  5.759237
  14367.117  14367.100  0.500  1.140170  33.063209  10.572446  5.746901
  14367.397  14367.400  0.500  1.140826  33.048114  10.560685  5.737756
  14367.722  14367.700  0.500  1.141532  33.033130  10.548451  5.728258
  14368.001  14368.000  0.500  1.142015  33.030066  10.542377  5.722774
  14368.326  14368.300  0.500  1.142651  33.016602  10.531384  5.714943
  14368.597  14368.600  0.500  1.142973  33.016637  10.527998  5.711311
  14368.913  14368.900  0.500  1.143573  33.020777  10.523005  5.707723
  14369.202  14369.200  0.500  1.143701  33.019087  10.521119  5.704366
  14369.500  14369.500  0.500  1.144226  33.024327  10.517270  5.701718
  14369.807  14369.800  0.500  1.144409  33.040391  10.520459  5.703433
  14370.095  14370.100  0.500  1.144695  33.050961  10.520810  5.702083
  14370.402  14370.400  0.500  1.144853  33.054848  10.520395  5.702641
  14370.700  14370.700  0.500  1.144826  33.056603  10.521235  5.702530
  14370.989  14371.000  0.500  1.145028  33.053356  10.518070  5.701239
  14371.305  14371.300  0.500  1.145324  33.067718  10.519533  5.702654
  14371.576  14371.600  0.500  1.145247  33.051870  10.515300  5.700094
  14371.901  14371.900  0.500  1.145251  33.066017  10.519760  5.703921
  14372.163  14372.200  0.500  1.145406  33.056632  10.515141  5.702430
  14372.488  14372.500  0.500  1.145385  33.045381  10.511785  5.700872
  14372.777  14372.800  0.500  1.145459  33.045028  10.510893  5.702461
  14373.084  14373.100  0.500  1.145424  33.050636  10.513048  5.702755
  14373.391  14373.400  0.500  1.145472  33.037189  10.508260  5.701403
  14373.689  14373.700  0.500  1.145596  33.025336  10.503193  5.702473
  14374.005  14374.000  0.500  1.145545  33.021786  10.502601  5.702169
  14374.294  14374.300  0.500  1.145496  33.020053  10.502560  5.703113
  14374.610  14374.600  0.500  1.145832  33.023862  10.500242  5.704149
  14374.899  14374.900  0.500  1.145783  33.018005  10.498897  5.704971
  14375.198  14375.200  0.500  1.145719  33.017140  10.499287  5.706060
  14375.523  14375.500  0.500  1.145863  32.996069  10.491079  5.704181
  14375.803  14375.800  0.500  1.145992  32.981280  10.485024  5.704002
  14376.110  14376.100  0.500  1.146000  32.972634  10.482196  5.702524
  14376.408  14376.400  0.500  1.146251  32.954241  10.473717  5.700845
  14376.688  14376.700  0.500  1.146344  32.959131  10.474294  5.703398
  14377.032  14377.000  0.500  1.146443  32.940016  10.467181  5.700432
  14377.312  14377.300  0.500  1.146537  32.939797  10.466136  5.700951
  14377.610  14377.600  0.500  1.146507  32.939940  10.466494  5.701939
  14377.809  14377.800  0.500  1.146761  32.954703  10.468521  5.705059
  14378.812  14378.790  0.500  1.147217  32.965593  10.467213  5.708814
  14379.770  14379.790  0.500  1.147632  32.976414  10.466299  5.713254
  14380.819  14380.810  0.500  1.148172  32.974379  10.460008  5.712695
  14381.885  14381.860  0.500  1.148439  32.968227  10.455261  5.710913
  14382.925  14382.920  0.500  1.148795  32.954047  10.447044  5.706046
  14384.020  14384.000  0.500  1.149238  32.944433  10.439367  5.698465
  14385.123  14385.100  0.500  1.149452  32.911657  10.426756  5.689215
  14386.263  14386.220  0.500  1.149907  32.871167  10.409185  5.674468
  14387.376  14387.360  0.500  1.149915  32.888435  10.414570  5.670029
  14388.525  14388.510  0.500  1.150341  32.908210  10.416399  5.665159
  14389.675  14389.690  0.500  1.150248  32.908189  10.417362  5.661201
  14390.906  14390.880  0.500  1.150073  32.905238  10.418252  5.655627
  14392.119  14392.100  0.500  1.149502  32.903876  10.423762  5.654488
  14393.351  14393.330  0.500  1.148811  32.886141  10.425351  5.653516
  14394.610  14394.580  0.500  1.147801  32.890361  10.437222  5.659934
  14395.878  14395.850  0.500  1.146524  32.878076  10.446656  5.667164
  14397.137  14397.140  0.500  1.145072  32.852175  10.453595  5.675688
  14398.460  14398.450  0.500  1.143378  32.843758  10.468640  5.687687
  14399.793  14399.780  0.500  1.141913  32.836263  10.481590  5.702658
  14401.153  14401.130  0.500  1.140269  32.817690  10.492900  5.713893
  14402.522  14402.500  0.500  1.138943  32.810921  10.504651  5.726823
  14403.891  14403.880  0.500  1.138024  32.804692  10.512319  5.735326
  14405.306  14405.290  0.500  1.137199  32.803211  10.520514  5.741248
  14406.704  14406.710  0.500  1.136659  32.783324  10.519816  5.742179
  14408.137  14408.150  0.500  1.136315  32.770386  10.519289  5.742978
  14409.626  14409.610  0.500  1.136212  32.754864  10.515389  5.740332
  14411.105  14411.090  0.500  1.136025  32.653995  10.484968  5.724717
  14412.604  14412.590  0.500  1.136114  32.597488  10.465887  5.714060
  14414.139  14414.110  0.500  1.135900  32.679834  10.494573  5.728474
  14415.656  14415.650  0.500  1.136280  32.810849  10.532638  5.750375
  14417.209  14417.210  0.500  1.135999  32.813790  10.536550  5.749400
  14418.781  14418.780  0.500  1.136141  32.808097  10.533226  5.747435
  14420.399  14420.380  0.500  1.135929  32.774995  10.524827  5.743006
  14422.000  14421.990  0.500  1.135674  32.701068  10.503766  5.730101
  14423.646  14423.630  0.500  1.135521  32.602666  10.473760  5.712538
  14425.274  14425.280  0.500  1.135026  32.730911  10.520167  5.737097
  14426.939  14426.950  0.500  1.135062  32.752191  10.526631  5.740221
  14428.641  14428.640  0.500  1.134631  32.726178  10.522795  5.738320
  14430.370  14430.350  0.500  1.134491  32.707627  10.518304  5.733251
  14432.100  14432.080  0.500  1.134322  32.656860  10.503760  5.724910
  14433.858  14433.830  0.500  1.134552  32.522066  10.457995  5.702466
  14435.588  14435.590  0.500  1.134681  32.649704  10.497682  5.725993
  14437.392  14437.380  0.500  1.135157  32.686015  10.504361  5.734338
  14439.188  14439.180  0.500  1.135194  32.660043  10.495626  5.731353
  14441.029  14441.010  0.500  1.135326  32.644684  10.489300  5.732408
  14442.853  14442.850  0.500  1.135234  32.624666  10.483831  5.733782
  14444.695  14444.710  0.500  1.135048  32.549534  10.461637  5.723723
  14446.593  14446.590  0.500  1.134591  32.475313  10.442558  5.717267
  14448.509  14448.490  0.500  1.133565  32.588647  10.489750  5.743623
  14450.444  14450.410  0.500  1.132669  32.575230  10.494833  5.747647
  14452.389  14452.350  0.500  1.131590  32.572362  10.505235  5.754690
  14454.298  14454.310  0.500  1.130569  32.549080  10.508450  5.757817
  14456.244  14456.280  0.500  1.129072  32.535174  10.519705  5.764274
  14458.254  14458.280  0.500  1.127678  32.515412  10.527979  5.768906
  14460.256  14460.290  0.500  1.126649  32.496847  10.532796  5.772211
  14462.286  14462.320  0.500  1.125130  32.485558  10.545149  5.780329
  14464.316  14464.380  0.500  1.124036  32.469899  10.551597  5.785619
  14466.393  14466.450  0.500  1.122802  32.452312  10.558905  5.792440
  14468.497  14468.540  0.500  1.121793  32.439159  10.565283  5.797781
  14470.639  14470.650  0.500  1.120993  32.420473  10.567642  5.800724
  14472.763  14472.780  0.500  1.119840  32.403980  10.574460  5.804889
  14474.861  14474.920  0.500  1.119057  32.392281  10.578919  5.809180
  14477.573  14477.090  0.500  1.118402  32.368122  10.577959  5.809483
  14479.195  14479.280  0.500  1.117665  32.350409  10.579962  5.810211
  14481.634  14481.480  0.500  1.117109  32.281150  10.563183  5.801076
  14483.816  14483.700  0.500  1.116368  32.302490  10.577997  5.809375
  14485.999  14485.950  0.500  1.116126  32.289724  10.576383  5.809604
  14488.165  14488.210  0.500  1.115704  32.275356  10.576132  5.811053
  14490.478  14490.490  0.500  1.115108  32.258852  10.577033  5.809467
  14492.755  14492.790  0.500  1.114900  32.245423  10.574824  5.810386
  14495.097  14495.110  0.500  1.114512  32.231066  10.574217  5.812902
  14497.431  14497.450  0.500  1.114203  32.227668  10.576372  5.814773
  14499.793  14499.800  0.500  1.114067  32.197683  10.567963  5.811411
  14502.165  14502.180  0.500  1.113936  32.184116  10.564898  5.812732
  14504.556  14504.570  0.500  1.113708  32.181490  10.566441  5.816111
  14506.966  14506.990  0.500  1.113569  32.157769  10.560125  5.813997
  14509.396  14509.420  0.500  1.113132  32.141395  10.559362  5.815754
  14511.845  14511.870  0.500  1.112629  32.107641  10.553577  5.813926
  14514.359  14514.350  0.500  1.112348  32.102801  10.554953  5.817361
  14516.846  14516.840  0.500  1.111577  32.037175  10.541499  5.811824
  14519.353  14519.350  0.500  1.110846  32.062778  10.557641  5.820399
  14521.870  14521.870  0.500  1.110084  32.048158  10.560873  5.826595
  14524.387  14524.420  0.500  1.109145  32.031164  10.565191  5.829085
  14526.970  14526.990  0.500  1.108256  32.016154  10.569632  5.834672
  14529.545  14529.570  0.500  1.107222  31.994513  10.573410  5.838957
  14532.186  14532.180  0.500  1.106415  31.981296  10.577576  5.843579
  14534.809  14534.800  0.500  1.105649  31.964658  10.580178  5.847361
  14537.432  14537.450  0.500  1.104647  31.932404  10.580094  5.849212
  14540.113  14540.110  0.500  1.103682  31.921568  10.586717  5.853308
  14542.766  14542.790  0.500  1.102727  31.904629  10.591206  5.856641
  14545.458  14545.490  0.500  1.101794  31.882204  10.593645  5.857430
  14548.215  14548.210  0.500  1.100893  31.858610  10.595343  5.858250
  14550.973  14550.950  0.500  1.100052  31.803823  10.586019  5.854128
  14553.695  14553.700  0.500  1.099228  31.819983  10.600137  5.861853
  14556.465  14556.480  0.500  1.098337  31.807739  10.605500  5.864398
  14559.273  14559.270  0.500  1.097263  31.781432  10.608110  5.867508
  14562.091  14562.090  0.500  1.096703  31.768827  10.609845  5.871070
  14564.920  14564.920  0.500  1.095550  31.745435  10.614266  5.874167
  14567.777  14567.770  0.500  1.094523  31.725513  10.618508  5.877946
  14570.682  14570.650  0.500  1.093746  31.705951  10.620210  5.881929
  14573.570  14573.540  0.500  1.092904  31.685891  10.622422  5.884384
  14576.459  14576.450  0.500  1.091998  31.665928  10.625354  5.889016
  14579.349  14579.370  0.500  1.091344  31.644692  10.625177  5.892780
  14582.305  14582.320  0.500  1.090376  31.618166  10.626557  5.895141
  14585.281  14585.290  0.500  1.089712  31.599314  10.627274  5.898408
  14588.267  14588.270  0.500  1.089235  31.584023  10.627193  5.901713
  14591.283  14591.280  0.500  1.088642  31.563508  10.626592  5.904886
  14594.282  14594.300  0.500  1.088060  31.542577  10.625724  5.908382
  14597.318  14597.350  0.500  1.087406  31.518308  10.624503  5.908279
  14600.422  14600.410  0.500  1.086915  31.500620  10.623752  5.911063
  14603.489  14603.490  0.500  1.086203  31.479007  10.624026  5.914677
  14606.595  14606.590  0.500  1.085558  31.451587  10.621618  5.914993
  14609.703  14609.710  0.500  1.084701  31.427202  10.622481  5.914657
  14612.821  14612.850  0.500  1.083993  31.405644  10.622711  5.915646
  14616.005  14616.000  0.500  1.083224  31.351973  10.612717  5.911401
  14619.192  14619.180  0.500  1.082230  31.366101  10.628064  5.920422
  14622.351  14622.370  0.500  1.081233  31.344559  10.631359  5.923177
  14625.587  14625.590  0.500  1.080196  31.327822  10.636705  5.926195
  14628.805  14628.820  0.500  1.079353  31.309493  10.639445  5.931188
  14632.081  14632.070  0.500  1.078255  31.275639  10.639619  5.933568
  14635.359  14635.350  0.500  1.077031  31.251609  10.644466  5.935911
  14638.629  14638.640  0.500  1.076086  31.230611  10.647367  5.939953
  14641.965  14641.950  0.500  1.075043  31.201924  10.648689  5.943582
  14645.276  14645.270  0.500  1.073914  31.142770  10.640508  5.939954
  14648.644  14648.620  0.500  1.072819  31.167908  10.660764  5.952670
  14651.994  14651.990  0.500  1.071620  31.136113  10.662663  5.956358
  14655.365  14655.370  0.500  1.070797  31.124500  10.667464  5.963419
  14658.795  14658.780  0.500  1.069610  31.060580  10.658199  5.960843
  14662.216  14662.200  0.500  1.068498  31.059925  10.669830  5.969733
  14665.639  14665.650  0.500  1.067470  30.997745  10.659427  5.968040
  14669.110  14669.110  0.500  1.066493  31.029590  10.680801  5.982641
  14672.621  14672.590  0.500  1.065407  31.003098  10.683282  5.987312
  14676.115  14676.090  0.500  1.064385  30.976804  10.685138  5.990716
  14679.610  14679.610  0.500  1.063430  30.957794  10.688783  5.993306
  14683.173  14683.150  0.500  1.062564  30.908246  10.680918  5.991221
  14686.719  14686.700  0.500  1.061334  30.847863  10.673171  5.987373
  14690.286  14690.280  0.500  1.060647  30.881415  10.692128  6.000512
  14693.920  14693.880  0.500  1.059764  30.858680  10.693695  6.002734
  14697.490  14697.490  0.500  1.058737  30.832073  10.695446  6.003339
  14701.138  14701.120  0.500  1.057831  30.804081  10.695425  6.007174
  14704.815  14704.780  0.500  1.056849  30.771665  10.694663  6.009405
  14708.467  14708.450  0.500  1.056127  30.751589  10.695414  6.012022
  14712.148  14712.140  0.500  1.055112  30.744420  10.703770  6.017502
  14715.860  14715.850  0.500  1.054335  30.715478  10.702017  6.018935
  14719.611  14719.580  0.500  1.053208  30.684932  10.703423  6.021318
  14723.317  14723.320  0.500  1.052345  30.668190  10.706817  6.025429
  14727.091  14727.090  0.500  1.051266  30.629894  10.705000  6.027833
  14730.924  14730.880  0.500  1.050501  30.617470  10.708843  6.032594
  14734.721  14734.680  0.500  1.049353  30.540084  10.694043  6.025856
  14738.502  14738.510  0.500  1.048313  30.451730  10.674200  6.016173
  14742.360  14742.350  0.500  1.047372  30.529746  10.711629  6.041900
  14746.248  14746.210  0.500  1.046106  30.508716  10.717803  6.047659
  14750.120  14750.090  0.500  1.045241  30.484948  10.718720  6.052264
  14753.975  14753.990  0.500  1.044091  30.453756  10.720073  6.055721
  14757.946  14757.910  0.500  1.043016  30.425778  10.721751  6.058763
  14761.872  14761.850  0.500  1.041913  30.395966  10.723060  6.062463
  14765.866  14765.810  0.500  1.040850  30.336601  10.713504  6.059655
  14769.786  14769.780  0.500  1.039781  30.353489  10.730928  6.071673
  14773.814  14773.780  0.500  1.038494  30.324232  10.734396  6.075118
  14777.815  14777.790  0.500  1.037227  30.297654  10.738579  6.078894
  14781.837  14781.830  0.500  1.036139  30.266789  10.739326  6.081710
  14785.890  14785.880  0.500  1.035051  30.240245  10.741585  6.084319
  14789.965  14789.950  0.500  1.033802  30.009242  10.672854  6.047505
  14794.090  14794.040  0.500  1.032640  30.189846  10.749572  6.092910
  14798.159  14798.150  0.500  1.031823  30.162905  10.748756  6.095472
  14802.308  14802.280  0.500  1.030595  30.138050  10.753095  6.099972
  14806.487  14806.430  0.500  1.029377  30.107072  10.755138  6.102656
  14810.631  14810.590  0.500  1.028393  30.083640  10.757346  6.106362
  14814.805  14814.780  0.500  1.027326  30.052920  10.757835  6.112710
  14819.011  14818.980  0.500  1.026156  30.031507  10.762745  6.116384
  14823.239  14823.210  0.500  1.024916  30.001043  10.765171  6.119828
  14827.459  14827.450  0.500  1.024027  29.964241  10.761526  6.121611
  14831.721  14831.710  0.500  1.022940  29.936948  10.763425  6.124250
  14836.023  14835.990  0.500  1.021676  29.875882  10.755054  6.121770
  14840.318  14840.290  0.500  1.020708  29.782334  10.731755  6.111737
  14844.645  14844.610  0.500  1.019438  29.841145  10.766611  6.134572
  14848.983  14848.950  0.500  1.018257  29.816411  10.770401  6.138965
  14853.334  14853.310  0.500  1.017430  29.793953  10.771200  6.142578
  14857.698  14857.690  0.500  1.016131  29.756772  10.771735  6.144592
  14862.102  14862.080  0.500  1.015151  29.701869  10.762404  6.144356
  14866.548  14866.500  0.500  1.013810  29.701784  10.776811  6.153641
  14870.958  14870.930  0.500  1.012623  29.671013  10.778436  6.156371
  14875.399  14875.380  0.500  1.011533  29.645990  10.781092  6.161096
  14879.882  14879.850  0.500  1.010308  29.621297  10.785312  6.165301
  14884.367  14884.340  0.500  1.009035  29.589946  10.787621  6.170022
  14888.875  14888.850  0.500  1.007888  29.552172  10.786221  6.170381
  14893.415  14893.380  0.500  1.006611  29.366169  10.732021  6.142874
  14897.967  14897.930  0.500  1.005354  29.576725  10.822569  6.195853
  14902.502  14902.500  0.500  1.004150  29.553095  10.826949  6.202794
  14907.108  14907.080  0.500  1.003061  29.523816  10.828007  6.204537
  14911.737  14911.690  0.500  1.001738  29.494524  10.831583  6.211211
  14916.330  14916.310  0.500  1.000515  29.463747  10.833527  6.212885
  14920.983  14920.960  0.500  0.999076  29.430112  10.836740  6.218314
  14925.660  14925.620  0.500  0.997966  29.403063  10.838810  6.224107
  14930.319  14930.300  0.500  0.996717  29.370509  10.840336  6.227152
  14935.021  14935.000  0.500  0.995550  29.300648  10.827181  6.223513
  14939.755  14939.720  0.500  0.994320  29.314641  10.845681  6.236175
  14944.463  14944.460  0.500  0.993036  29.283553  10.848101  6.239839
  14949.252  14949.210  0.500  0.991806  29.254286  10.850592  6.246273
  14954.024  14953.990  0.500  0.990590  29.218079  10.850355  6.247854
  14958.790  14958.790  0.500  0.989374  29.190638  10.853348  6.251883
  14963.627  14963.600  0.500  0.988023  29.159730  10.856516  6.255855
  14968.497  14968.430  0.500  0.986879  29.121652  10.854754  6.257243
  14973.321  14973.290  0.500  0.985807  29.052281  10.840504  6.251971
  14978.178  14978.160  0.500  0.984472  29.051996  10.854887  6.263593
  14983.087  14983.050  0.500  0.983396  29.011117  10.851286  6.264315
  14987.970  14987.960  0.500  0.982107  28.984828  10.855430  6.269844
  14992.924  14992.890  0.500  0.980786  28.948706  10.856239  6.272298
  14997.892  14997.830  0.500  0.979524  28.934769  10.864712  6.280880
  15002.814  15002.800  0.500  0.978301  28.899093  10.864599  6.282913
  15007.838  15007.790  0.500  0.977158  28.865775  10.864482  6.287607
  15012.826  15012.790  0.500  0.975648  28.839660  10.871052  6.292750
  15017.837  15017.820  0.500  0.974590  28.803933  10.869082  6.293859
  15022.880  15022.860  0.500  0.973226  28.768837  10.870650  6.297900
  15027.957  15027.920  0.500  0.972079  28.723010  10.865791  6.297882
  15033.018  15033.000  0.500  0.970594  28.703647  10.874609  6.305929
  15038.131  15038.100  0.500  0.969151  28.677204  10.880277  6.311551
  15043.219  15043.220  0.500  0.968182  28.645474  10.878773  6.314402
  15048.369  15048.360  0.500  0.966619  28.610162  10.882363  6.319796
  15053.523  15053.520  0.500  0.965444  28.577311  10.882644  6.324269
  15058.690  15058.700  0.500  0.964057  28.540589  10.883747  6.328751
  15063.920  15063.890  0.500  0.962699  28.502549  10.884009  6.331553
  15069.144  15069.110  0.500  0.961465  28.474256  10.886626  6.337073
  15074.352  15074.340  0.500  0.960106  28.437084  10.887199  6.340004
  15079.614  15079.590  0.500  0.958761  28.410976  10.891846  6.345352
  15084.869  15084.860  0.500  0.957405  28.371281  10.891391  6.347948
  15090.177  15090.150  0.500  0.956103  28.343639  10.894951  6.353749
  15095.509  15095.460  0.500  0.954523  28.305027  10.897311  6.357810
  15100.796  15100.790  0.500  0.953410  28.273161  10.897168  6.361412
  15106.165  15106.140  0.500  0.951971  28.241707  10.900723  6.366526
  15111.549  15111.510  0.500  0.950686  28.208106  10.901753  6.369668
  15116.896  15116.890  0.500  0.949335  28.176198  10.904143  6.372245
  15122.328  15122.300  0.500  0.948012  28.137267  10.903488  6.377345
  15127.773  15127.720  0.500  0.946545  28.102216  10.905897  6.379460
  15133.182  15133.170  0.500  0.945329  28.065602  10.904938  6.384377
  15138.696  15138.630  0.500  0.943827  28.032408  10.908411  6.387757
  15144.143  15144.110  0.500  0.942636  27.998789  10.908315  6.390968
  15149.614  15149.610  0.500  0.941386  27.953628  10.904346  6.392097
  15155.170  15155.130  0.500  0.939737  27.922238  10.910069  6.397416
  15160.689  15160.670  0.500  0.938536  27.833454  10.888445  6.390246
  15166.233  15166.220  0.500  0.937167  27.843349  10.907244  6.403399
  15171.851  15171.800  0.500  0.935827  27.819552  10.912534  6.410106
  15177.433  15177.400  0.500  0.934381  27.787152  10.915601  6.414281
  15183.060  15183.010  0.500  0.933070  27.754315  10.917002  6.419197
  15188.721  15188.650  0.500  0.931547  27.713774  10.917670  6.420995
  15194.336  15194.300  0.500  0.930243  27.679170  10.918261  6.425482
  15200.006  15199.970  0.500  0.928872  27.637606  10.916825  6.429084
  15205.700  15205.660  0.500  0.927544  27.606260  10.918938  6.435200
