# XDI/1.0 BlueSky/1.10.0 BMM/2023-1.0-py310-tiled
# Beamline.name: BMM (06BM) -- Beamline for Materials Measurement (NIST)
# Beamline.xray_source: NSLS-II three-pole wiggler
# Beamline.collimation: paraboloid mirror, 5 nm Rh on 30 nm Pt
# Beamline.focusing: not in use
# Beamline.harmonic_rejection: flat mirror, Pt stripe, pitch = 7.0 mrad relative to beam
# Beamline.software: Bluesky 1.10.0, Ophyd 1.7.0, DataBroker 2.0.0b13, Python 3.10.8, 2023-1.0-py310-tiled
# Detector.I0: 10 cm N2
# Detector.I1: 25 cm N2
# Detector.I2: 25 cm N2
# Element.symbol: Au
# Element.edge: L3
# Element.reference: Au
# Element.reference_material: Au foil
# Facility.name: NSLS-II
# Facility.energy: 3.0
# Facility.current: 399.6
# Facility.mode: top-off
# Facility.GUP: 301027
# Facility.SAF: 310583
# Facility.cycle: 2023-2
# Mono.name: Si(111)
# Mono.d_spacing: 3.1351860
# Mono.encoder_resolution: 0.0000050 deg/ct
# Mono.angle_offset: 16.0754326 deg
# Mono.scan_mode: pseudo channel cut
# Mono.scan_type: step
# Mono.direction: forward in energy
# Sample.name: La4LiAuO8
# Sample.prep: powder on tape
# Sample.x: 145.711 mm
# Sample.y: 114.376 mm
# Sample.SDD_position: 205.000 mm
# Scan.experimenters: Bruce Ravel
# Scan.edge_energy: 11918.7
# Scan.start_time: 2023-06-27T18:15:36
# Scan.end_time: 2023-06-27T18:23:23
# Scan.transient_id: 85217
# Scan.uid: f5d821ce-a7ba-4166-845f-8c5996ea4c0d
# Scan.plot_hint: ln(I0/It)  --  ln($5/$6)
# Column.1: energy eV
# Column.2: requested_energy eV
# Column.3: measurement_time seconds
# Column.4: xmu 
# Column.5: I0 nA
# Column.6: It nA
# Column.7: Ir nA
# ///////////
# sample courtesy Martin Stennett, University of Sheffield, see DOI: 10.1021/ic100486g
# -----------
# energy  requested_energy  measurement_time  xmu  I0  It  Ir
  11718.702  11718.700  0.500  1.224874  64.528088  18.958008  12.058380
  11728.741  11728.700  0.500  1.221300  64.392536  18.985923  12.090829
  11738.738  11738.700  0.500  1.217544  64.240564  19.012391  12.119028
  11748.728  11748.700  0.500  1.213798  64.044563  19.025518  12.142132
  11758.735  11758.700  0.500  1.210198  63.790698  19.018446  12.150053
  11768.741  11768.700  0.500  1.206542  63.860346  19.108944  12.221463
  11778.801  11778.700  0.500  1.202958  63.551625  19.084839  12.219196
  11788.733  11788.700  0.500  1.199441  63.593162  19.164595  12.283104
  11798.755  11798.700  0.500  1.195839  63.453129  19.191400  12.315295
  11808.751  11808.700  0.500  1.192127  63.293249  19.214235  12.340535
  11818.789  11818.700  0.500  1.188758  63.159557  19.238367  12.368272
  11828.693  11828.700  0.500  1.185200  63.011728  19.261743  12.395787
  11838.710  11838.700  0.500  1.181867  62.910024  19.294846  12.431132
  11848.727  11848.700  0.500  1.178407  62.602189  19.266995  12.421609
  11858.724  11858.700  0.500  1.175003  62.554806  19.318057  12.464199
  11868.732  11868.700  0.500  1.171854  62.528518  19.370834  12.507103
  11878.739  11878.700  0.500  1.168990  62.387910  19.382706  12.517428
  11888.720  11888.700  0.500  1.166649  62.212474  19.373510  12.511238
  11890.676  11890.700  0.500  1.166268  62.200115  19.377036  12.511284
  11892.670  11892.700  0.500  1.165780  62.168665  19.376691  12.506561
  11894.671  11894.700  0.500  1.165526  62.141133  19.373037  12.500361
  11896.660  11896.700  0.500  1.165565  62.113668  19.363712  12.491837
  11898.675  11898.700  0.500  1.165456  62.065851  19.350918  12.476824
  11900.671  11900.700  0.500  1.165645  61.967711  19.316679  12.447584
  11902.669  11902.700  0.500  1.165957  61.381187  19.127870  12.315131
  11904.673  11904.700  0.500  1.166615  61.963117  19.296503  12.411369
  11906.678  11906.700  0.500  1.167509  61.987674  19.286907  12.388965
  11908.671  11908.700  0.500  1.169271  61.971024  19.247776  12.339847
  11908.955  11909.000  0.500  1.169467  61.963111  19.241554  12.330095
  11909.245  11909.300  0.500  1.170002  61.954743  19.228672  12.319479
  11909.541  11909.600  0.500  1.170182  61.947365  19.222922  12.310085
  11909.844  11909.900  0.500  1.170705  61.944426  19.211959  12.297955
  11910.146  11910.200  0.500  1.171068  61.940421  19.203740  12.287060
  11910.449  11910.500  0.500  1.171660  61.951095  19.195673  12.277523
  11910.745  11910.800  0.500  1.172017  61.943630  19.186518  12.263848
  11911.054  11911.100  0.500  1.172562  62.062987  19.213007  12.274006
  11911.344  11911.400  0.500  1.173301  62.105173  19.211878  12.268658
  11911.665  11911.700  0.500  1.173708  62.094600  19.200779  12.253725
  11911.956  11912.000  0.500  1.174585  62.085740  19.181212  12.236398
  11912.258  11912.300  0.500  1.175165  62.079864  19.168271  12.218918
  11912.573  11912.600  0.500  1.175858  62.089115  19.157844  12.201391
  11912.857  11912.900  0.500  1.176694  62.070125  19.135983  12.180729
  11913.172  11913.200  0.500  1.177603  62.078599  19.121221  12.162448
  11913.481  11913.500  0.500  1.178591  62.066857  19.098714  12.135124
  11913.778  11913.800  0.500  1.179668  62.054191  19.074268  12.110366
  11914.080  11914.100  0.500  1.180861  62.047816  19.049574  12.082341
  11914.383  11914.400  0.500  1.182062  62.044585  19.025718  12.054329
  11914.698  11914.700  0.500  1.183525  62.031083  18.993755  12.020381
  11914.982  11915.000  0.500  1.185037  62.019281  18.961462  11.985360
  11915.285  11915.300  0.500  1.186600  62.005458  18.927626  11.945320
  11915.588  11915.600  0.500  1.188445  61.974118  18.883182  11.900794
  11915.884  11915.900  0.500  1.190518  61.927382  18.829867  11.846270
  11916.193  11916.200  0.500  1.192681  61.828649  18.759222  11.779977
  11916.484  11916.500  0.500  1.195092  61.705225  18.676701  11.705490
  11916.793  11916.800  0.500  1.197797  61.567021  18.584523  11.621355
  11917.077  11917.100  0.500  1.200606  61.442878  18.495032  11.538650
  11917.386  11917.400  0.500  1.203962  61.344074  18.403416  11.449462
  11917.677  11917.700  0.500  1.207627  61.326758  18.330917  11.372461
  11917.980  11918.000  0.500  1.211908  61.376156  18.267321  11.295999
  11918.270  11918.300  0.500  1.216130  61.453843  18.213387  11.227177
  11918.592  11918.600  0.500  1.221379  61.557182  18.148501  11.140892
  11918.882  11918.900  0.500  1.226928  61.658196  18.077684  11.049096
  11919.179  11919.200  0.500  1.233604  61.787669  17.995100  10.942457
  11919.482  11919.500  0.500  1.240768  61.865782  17.889243  10.817463
  11919.785  11919.800  0.500  1.248909  61.913616  17.757910  10.669359
  11920.100  11920.100  0.500  1.258162  61.934007  17.600150  10.505676
  11920.391  11920.400  0.500  1.268414  61.946325  17.424092  10.322256
  11920.713  11920.700  0.500  1.280456  61.954588  17.217834  10.112765
  11920.997  11921.000  0.500  1.292675  61.950467  17.007600  9.903842
  11921.300  11921.300  0.500  1.306445  61.947661  16.774254  9.674585
  11921.591  11921.600  0.500  1.320184  61.953584  16.546951  9.457014
  11921.913  11921.900  0.500  1.335701  61.948976  16.290961  9.218760
  11922.197  11922.200  0.500  1.349930  61.946197  16.060072  9.004288
  11922.507  11922.500  0.500  1.364228  61.938288  15.830063  8.793006
  11922.804  11922.800  0.500  1.376875  61.935755  15.630475  8.607544
  11923.094  11923.100  0.500  1.387046  61.933550  15.471759  8.451964
  11923.391  11923.400  0.500  1.395066  61.926048  15.346302  8.326322
  11923.676  11923.700  0.500  1.400051  61.927339  15.270322  8.235900
  11923.998  11924.000  0.500  1.402651  61.920685  15.229034  8.166298
  11924.282  11924.300  0.500  1.402242  61.914045  15.233617  8.131794
  11924.586  11924.600  0.500  1.399652  61.904389  15.270745  8.119880
  11924.889  11924.900  0.500  1.395394  61.907660  15.336719  8.127469
  11925.192  11925.200  0.500  1.389542  61.903808  15.425772  8.152800
  11925.495  11925.500  0.500  1.383481  61.890069  15.516114  8.182852
  11925.786  11925.800  0.500  1.377358  61.891416  15.611737  8.220086
  11926.108  11926.100  0.500  1.370983  61.888378  15.710820  8.261644
  11926.399  11926.400  0.500  1.365295  61.881682  15.798719  8.300918
  11926.709  11926.700  0.500  1.359864  61.873203  15.882590  8.340241
  11927.000  11927.000  0.500  1.355176  61.868127  15.955908  8.378757
  11927.309  11927.300  0.500  1.350460  61.866024  16.030791  8.417992
  11927.594  11927.600  0.500  1.346073  61.856563  16.098801  8.452035
  11927.904  11927.900  0.500  1.341614  61.852337  16.169649  8.490913
  11928.201  11928.200  0.500  1.337325  61.843541  16.236834  8.527907
  11928.504  11928.500  0.500  1.332816  61.842825  16.310027  8.564840
  11928.796  11928.800  0.500  1.328719  61.838568  16.375866  8.600456
  11929.099  11929.100  0.500  1.324723  61.841961  16.442327  8.631608
  11929.409  11929.400  0.500  1.320690  61.834490  16.506776  8.662596
  11929.687  11929.700  0.500  1.317115  61.825151  16.563393  8.687327
  11930.003  11930.000  0.500  1.313492  61.818630  16.621755  8.710423
  11930.276  11930.300  0.500  1.310560  61.823028  16.671748  8.728631
  11930.598  11930.600  0.500  1.307585  61.809116  16.717668  8.744454
  11930.883  11930.900  0.500  1.304971  61.802454  16.759610  8.756673
  11931.199  11931.200  0.500  1.302519  61.801106  16.800388  8.766875
  11931.490  11931.500  0.500  1.300321  61.791711  16.834798  8.773193
  11931.800  11931.800  0.500  1.297862  61.783508  16.874011  8.777723
  11932.091  11932.100  0.500  1.295761  61.776082  16.907470  8.781243
  11932.395  11932.400  0.500  1.293718  61.765752  16.939207  8.785201
  11932.705  11932.700  0.500  1.291900  61.755406  16.967199  8.788029
  11933.002  11933.000  0.500  1.289910  61.753329  17.000413  8.789075
  11933.318  11933.300  0.500  1.288160  61.736159  17.025452  8.789475
  11933.597  11933.600  0.500  1.286579  61.710864  17.045405  8.786755
  11933.913  11933.900  0.500  1.285186  61.619657  17.043944  8.773052
  11934.205  11934.200  0.500  1.284015  61.490482  17.028149  8.754818
  11934.521  11934.500  0.500  1.283230  61.337042  16.998992  8.729391
  11934.800  11934.800  0.500  1.282554  61.192823  16.970490  8.706332
  11935.104  11935.100  0.500  1.282418  61.076496  16.940535  8.683007
  11935.395  11935.400  0.500  1.282599  61.041863  16.927854  8.669030
  11935.705  11935.700  0.500  1.283030  61.060916  16.925851  8.661963
  11935.984  11936.000  0.500  1.283848  61.113986  16.926705  8.658290
  11936.294  11936.300  0.500  1.284957  61.210670  16.934701  8.657369
  11936.586  11936.600  0.500  1.286148  61.320356  16.944842  8.660015
  11936.896  11936.900  0.500  1.287530  61.437945  16.953891  8.663708
  11937.181  11937.200  0.500  1.288696  61.529799  16.959455  8.661652
  11937.497  11937.500  0.500  1.290388  61.593947  16.948430  8.653241
  11937.783  11937.800  0.500  1.291928  61.617749  16.928892  8.642066
  11938.093  11938.100  0.500  1.293563  61.635900  16.906212  8.629413
  11938.390  11938.400  0.500  1.295188  61.638394  16.879459  8.611458
  11938.713  11938.700  0.500  1.296630  61.646416  16.857328  8.596624
  11939.005  11939.000  0.500  1.298034  61.628968  16.828898  8.580031
  11939.302  11939.300  0.500  1.299375  61.633986  16.807722  8.564926
  11939.613  11939.600  0.500  1.300465  61.632887  16.789117  8.551033
  11939.911  11939.900  0.500  1.301706  61.623000  16.765603  8.533937
  11940.208  11940.200  0.500  1.302911  61.637028  16.749214  8.520020
  11940.500  11940.500  0.500  1.303991  61.626278  16.728229  8.505219
  11940.810  11940.800  0.500  1.304918  61.617199  16.710261  8.490857
  11941.102  11941.100  0.500  1.305821  61.620233  16.696010  8.478124
  11941.400  11941.400  0.500  1.306947  61.613711  16.675453  8.463275
  11941.698  11941.700  0.500  1.308001  61.614551  16.658113  8.450980
  11942.002  11942.000  0.500  1.309017  61.605116  16.638648  8.435552
  11942.287  11942.300  0.500  1.309921  61.592725  16.620263  8.422574
  11942.592  11942.600  0.500  1.311146  61.593495  16.600132  8.407397
  11942.877  11942.900  0.500  1.312142  61.594525  16.583883  8.393873
  11943.194  11943.200  0.500  1.313198  61.586675  16.564267  8.374685
  11943.486  11943.500  0.500  1.314398  61.578329  16.542147  8.354836
  11943.691  11943.700  0.500  1.315142  61.569790  16.527554  8.339896
  11944.703  11944.690  0.500  1.319049  61.564393  16.461663  8.258930
  11945.715  11945.690  0.500  1.322469  61.550098  16.401664  8.154898
  11946.734  11946.710  0.500  1.325639  61.531814  16.344885  8.050188
  11947.777  11947.760  0.500  1.328024  61.512117  16.300741  7.968919
  11948.828  11948.820  0.500  1.329233  61.496318  16.276855  7.934824
  11949.897  11949.900  0.500  1.329546  61.488708  16.269757  7.946160
  11951.009  11951.000  0.500  1.329277  61.475450  16.270612  7.989207
  11952.135  11952.120  0.500  1.328971  61.454004  16.269917  8.045222
  11953.285  11953.260  0.500  1.328606  61.442457  16.272806  8.090805
  11954.436  11954.410  0.500  1.328334  61.419540  16.271156  8.117102
  11955.593  11955.590  0.500  1.328313  61.405551  16.267786  8.124852
  11956.781  11956.780  0.500  1.328496  61.388801  16.260371  8.129369
  11958.013  11958.000  0.500  1.329397  61.373731  16.241740  8.130636
  11959.246  11959.230  0.500  1.331083  61.361441  16.211143  8.129867
  11960.497  11960.480  0.500  1.333250  61.337451  16.169719  8.118858
  11961.761  11961.750  0.500  1.335982  61.327564  16.123011  8.089143
  11963.044  11963.040  0.500  1.339686  61.300783  16.056385  8.038317
  11964.359  11964.350  0.500  1.344620  61.285509  15.973379  7.964322
  11965.699  11965.680  0.500  1.350351  61.258402  15.875066  7.882027
  11967.058  11967.030  0.500  1.356331  61.236667  15.774817  7.794746
  11968.429  11968.400  0.500  1.361191  61.221190  15.694376  7.721472
  11969.782  11969.780  0.500  1.363836  61.202866  15.648230  7.670116
  11971.192  11971.190  0.500  1.363419  61.183770  15.649881  7.656306
  11972.621  11972.610  0.500  1.359407  61.158953  15.706423  7.683957
  11974.068  11974.050  0.500  1.353608  61.131856  15.790766  7.739982
  11975.523  11975.510  0.500  1.347098  61.114866  15.889477  7.809954
  11976.990  11976.990  0.500  1.340924  61.095912  15.982926  7.877844
  11978.507  11978.490  0.500  1.335373  61.078691  16.067365  7.939579
  11980.013  11980.010  0.500  1.330478  61.055546  16.140079  7.992546
  11981.575  11981.550  0.500  1.326203  61.031786  16.202929  8.037883
  11983.118  11983.110  0.500  1.323529  61.015930  16.242096  8.070627
  11984.687  11984.680  0.500  1.322016  60.986472  16.258835  8.088852
  11986.282  11986.280  0.500  1.321341  60.963232  16.263608  8.102915
  11987.908  11987.890  0.500  1.320700  60.942285  16.268438  8.118566
  11989.535  11989.530  0.500  1.319753  60.926106  16.279528  8.142843
  11991.175  11991.180  0.500  1.318826  60.887423  16.284293  8.163753
  11992.846  11992.850  0.500  1.318356  60.869388  16.287123  8.178824
  11994.549  11994.540  0.500  1.318473  60.842417  16.277993  8.178375
  11996.272  11996.250  0.500  1.319783  60.827009  16.252567  8.166564
  11997.976  11997.980  0.500  1.321347  60.794071  16.218379  8.144964
  11999.724  11999.730  0.500  1.322927  60.789493  16.191564  8.123087
  12001.505  12001.490  0.500  1.324004  60.747312  16.162912  8.095108
  12003.292  12003.280  0.500  1.324017  60.731286  16.158433  8.077900
  12005.086  12005.080  0.500  1.322393  60.706462  16.178073  8.065991
  12006.906  12006.910  0.500  1.319532  60.677914  16.216794  8.069092
  12008.757  12008.750  0.500  1.316093  60.646235  16.264164  8.080591
  12010.622  12010.610  0.500  1.313259  60.633073  16.306789  8.100541
  12012.481  12012.490  0.500  1.311007  60.607483  16.336657  8.116121
  12014.360  12014.390  0.500  1.309799  60.577956  16.348426  8.129810
  12016.314  12016.310  0.500  1.309359  60.558720  16.350430  8.141596
  12018.244  12018.250  0.500  1.309274  60.527590  16.343416  8.148204
  12020.188  12020.210  0.500  1.309670  60.502581  16.330190  8.149668
  12022.232  12022.180  0.500  1.310601  60.472992  16.307016  8.146321
  12024.145  12024.180  0.500  1.311941  60.443215  16.277175  8.136505
  12026.405  12026.190  0.500  1.313462  60.407056  16.242700  8.120419
  12028.257  12028.220  0.500  1.314895  60.380753  16.212383  8.105675
  12030.336  12030.280  0.500  1.315926  60.361589  16.190536  8.095397
  12032.390  12032.350  0.500  1.316755  60.512765  16.217638  8.112189
  12034.483  12034.440  0.500  1.317460  60.490038  16.200119  8.106656
  12036.595  12036.550  0.500  1.317932  60.454647  16.183009  8.104504
  12038.728  12038.680  0.500  1.318260  60.426652  16.170198  8.106208
  12040.873  12040.820  0.500  1.317695  60.386798  16.168664  8.117912
  12043.032  12042.990  0.500  1.316835  60.353815  16.173747  8.131463
  12045.211  12045.180  0.500  1.315321  60.278635  16.178080  8.142429
  12047.422  12047.380  0.500  1.313653  59.088093  15.885016  8.004763
  12049.647  12049.600  0.500  1.311834  59.372190  15.990458  8.064152
  12051.898  12051.850  0.500  1.309549  60.157637  16.239056  8.193479
  12054.149  12054.110  0.500  1.306974  60.179269  16.286775  8.214541
  12056.421  12056.390  0.500  1.304522  60.157055  16.320733  8.227063
  12058.718  12058.690  0.500  1.302177  60.125279  16.350421  8.237981
  12061.048  12061.010  0.500  1.300230  60.100035  16.375409  8.244185
  12063.380  12063.350  0.500  1.298940  60.077463  16.390385  8.248367
  12065.724  12065.700  0.500  1.297546  60.035761  16.401855  8.248328
  12068.083  12068.080  0.500  1.296771  60.012791  16.408296  8.249474
  12070.480  12070.470  0.500  1.295884  59.973487  16.412102  8.249109
  12072.916  12072.890  0.500  1.295758  59.945762  16.406569  8.246329
  12075.353  12075.320  0.500  1.295825  59.910491  16.395821  8.238077
  12077.798  12077.770  0.500  1.296224  59.881737  16.381411  8.232107
  12080.257  12080.250  0.500  1.296297  59.849342  16.371357  8.228222
  12082.754  12082.740  0.500  1.296077  59.809573  16.364078  8.230483
  12085.265  12085.250  0.500  1.295206  59.779456  16.370094  8.234107
  12087.797  12087.770  0.500  1.294164  59.739627  16.376244  8.238517
  12090.342  12090.320  0.500  1.292759  59.690713  16.385836  8.243460
  12092.908  12092.890  0.500  1.291291  59.494444  16.355959  8.227109
  12095.480  12095.470  0.500  1.290051  59.650783  16.419282  8.260412
  12098.099  12098.080  0.500  1.288956  59.606736  16.425138  8.266606
  12100.725  12100.700  0.500  1.287723  59.572444  16.435931  8.279721
  12103.365  12103.350  0.500  1.286565  59.541407  16.446404  8.297327
  12106.007  12106.010  0.500  1.285692  59.502998  16.450159  8.312891
  12108.706  12108.690  0.500  1.284833  59.466828  16.454284  8.324185
  12111.408  12111.390  0.500  1.284669  59.431731  16.447269  8.331449
  12114.148  12114.110  0.500  1.284497  59.391396  16.438938  8.332904
  12116.852  12116.850  0.500  1.284590  59.360306  16.428790  8.332058
  12119.608  12119.600  0.500  1.284590  59.326899  16.419556  8.331734
  12122.397  12122.380  0.500  1.284568  59.282954  16.407754  8.327136
  12125.187  12125.170  0.500  1.284372  59.248861  16.401533  8.324499
  12127.986  12127.990  0.500  1.284155  59.171913  16.383785  8.317863
  12130.811  12130.820  0.500  1.283778  59.103068  16.370894  8.309186
  12133.657  12133.670  0.500  1.283140  59.151622  16.394794  8.319574
  12136.561  12136.550  0.500  1.282069  59.105676  16.399624  8.315734
  12139.435  12139.440  0.500  1.281006  59.067640  16.406489  8.314539
  12142.350  12142.350  0.500  1.279466  59.029319  16.421126  8.315535
  12145.291  12145.270  0.500  1.277921  58.991594  16.435992  8.316153
  12148.227  12148.220  0.500  1.276460  58.943915  16.446721  8.317342
  12151.190  12151.190  0.500  1.274650  58.898146  16.463732  8.323895
  12154.168  12154.170  0.500  1.273138  58.860268  16.478033  8.332776
  12157.211  12157.180  0.500  1.271458  58.825153  16.495892  8.347439
  12160.211  12160.200  0.500  1.270127  58.766578  16.501417  8.358302
  12163.245  12163.250  0.500  1.269079  58.524385  16.450641  8.344840
  12166.325  12166.310  0.500  1.268064  58.702064  16.517341  8.390450
  12169.401  12169.390  0.500  1.267052  58.662541  16.522939  8.407138
  12172.491  12172.490  0.500  1.265754  58.618190  16.531891  8.421779
  12175.640  12175.610  0.500  1.264653  58.572095  16.537078  8.437597
  12178.779  12178.750  0.500  1.263659  58.527764  16.541007  8.443796
  12181.912  12181.900  0.500  1.263167  58.485908  16.537301  8.446928
  12185.106  12185.080  0.500  1.262542  58.443444  16.535638  8.447181
  12188.294  12188.270  0.500  1.261864  58.398852  16.534224  8.446998
  12191.504  12191.490  0.500  1.260945  58.352145  16.536194  8.447790
  12194.748  12194.720  0.500  1.259641  58.310743  16.546016  8.457088
  12197.993  12197.970  0.500  1.258032  58.263831  16.559328  8.468624
  12201.253  12201.250  0.500  1.256469  57.997794  16.509505  8.448526
  12204.561  12204.540  0.500  1.255077  58.189249  16.587080  8.488353
  12207.896  12207.850  0.500  1.253690  58.144504  16.597319  8.493386
  12211.168  12211.170  0.500  1.252229  58.098762  16.608507  8.498769
  12214.546  12214.520  0.500  1.250958  58.054992  16.617106  8.498591
  12217.906  12217.890  0.500  1.249949  58.012723  16.621766  8.499343
  12221.282  12221.270  0.500  1.249130  57.975078  16.624591  8.498369
  12224.704  12224.680  0.500  1.248512  57.933553  16.622961  8.498589
  12228.129  12228.100  0.500  1.247657  57.885622  16.623404  8.498622
  12231.562  12231.550  0.500  1.246922  57.827198  16.618848  8.501583
  12235.029  12235.010  0.500  1.245963  56.657978  16.298441  8.347814
  12238.505  12238.490  0.500  1.245060  57.592892  16.582351  8.501734
  12242.003  12241.990  0.500  1.244263  57.655843  16.613710  8.529819
  12245.529  12245.510  0.500  1.243565  57.632933  16.618710  8.543396
  12249.070  12249.050  0.500  1.242826  57.588360  16.618131  8.552857
  12252.600  12252.600  0.500  1.241699  57.537849  16.622272  8.559647
  12256.197  12256.180  0.500  1.240898  57.359436  16.584018  8.545509
  12259.790  12259.780  0.500  1.239840  57.436948  16.624003  8.568468
  12263.405  12263.390  0.500  1.238725  56.923139  16.493668  8.503996
  12267.048  12267.020  0.500  1.237521  57.091926  16.562514  8.544153
  12270.707  12270.680  0.500  1.235624  57.145485  16.609522  8.571386
  12274.374  12274.350  0.500  1.233755  57.248141  16.670489  8.606788
  12278.063  12278.040  0.500  1.231705  57.197722  16.689985  8.620844
  12281.748  12281.750  0.500  1.229973  57.137739  16.701390  8.631763
  12285.488  12285.480  0.500  1.228359  57.028910  16.696509  8.630652
  12289.223  12289.220  0.500  1.227008  56.816270  16.656735  8.612958
  12292.987  12292.990  0.500  1.225870  56.530590  16.591863  8.578124
  12296.800  12296.780  0.500  1.224677  56.888089  16.716705  8.644111
  12300.588  12300.580  0.500  1.223538  56.781792  16.704491  8.639185
  12304.412  12304.410  0.500  1.222396  56.815513  16.733519  8.656366
  12308.272  12308.250  0.500  1.221329  56.765337  16.736574  8.659902
  12312.107  12312.110  0.500  1.220378  56.710397  16.736291  8.663528
  12316.004  12315.990  0.500  1.219448  56.656500  16.735949  8.666958
  12319.897  12319.890  0.500  1.218453  56.204739  16.619027  8.611174
  12323.826  12323.810  0.500  1.217643  56.335826  16.671284  8.645025
  12327.770  12327.750  0.500  1.216356  56.468377  16.732023  8.687325
  12331.724  12331.710  0.500  1.215030  56.431775  16.743365  8.699761
  12335.707  12335.680  0.500  1.213306  56.385807  16.758602  8.718268
  12339.686  12339.680  0.500  1.211741  56.340546  16.771371  8.731851
  12343.720  12343.690  0.500  1.210239  56.284408  16.779844  8.745111
  12347.744  12347.730  0.500  1.208820  56.232281  16.788118  8.752874
  12351.777  12351.780  0.500  1.207334  56.173818  16.795589  8.763161
  12355.859  12355.850  0.500  1.205873  56.122486  16.804778  8.771700
  12359.958  12359.940  0.500  1.204300  56.078079  16.817927  8.779410
  12364.059  12364.050  0.500  1.203011  55.953001  16.802054  8.774466
  12368.183  12368.180  0.500  1.201586  55.973510  16.832182  8.792419
  12372.329  12372.330  0.500  1.200342  55.877260  16.824157  8.790482
  12376.512  12376.490  0.500  1.199212  55.863151  16.838919  8.801141
  12380.698  12380.680  0.500  1.198103  55.797112  16.837683  8.802149
  12384.907  12384.880  0.500  1.197249  55.375566  16.724754  8.747671
  12389.112  12389.110  0.500  1.196359  55.715398  16.842364  8.812921
  12393.386  12393.350  0.500  1.195306  55.653312  16.841319  8.817563
  12397.624  12397.610  0.500  1.194329  55.594806  16.840062  8.821144
  12401.891  12401.890  0.500  1.193183  55.538822  16.842390  8.828195
  12406.228  12406.190  0.500  1.191558  55.479824  16.851865  8.835702
  12410.522  12410.510  0.500  1.190110  55.400686  16.852208  8.844339
  12414.865  12414.850  0.500  1.188399  55.360246  16.868748  8.859792
  12419.225  12419.210  0.500  1.186819  55.309286  16.879876  8.871040
  12423.615  12423.590  0.500  1.185342  55.233693  16.881715  8.880161
  12428.001  12427.980  0.500  1.183789  55.185105  16.893074  8.893031
  12432.431  12432.400  0.500  1.182141  55.110852  16.898178  8.902588
  12436.857  12436.830  0.500  1.180683  54.696067  16.795464  8.855113
  12441.294  12441.280  0.500  1.178892  55.035105  16.929865  8.932177
  12445.794  12445.750  0.500  1.177266  54.971699  16.937873  8.941011
  12450.250  12450.240  0.500  1.175619  54.908377  16.946258  8.951179
  12454.770  12454.750  0.500  1.173953  54.784940  16.936351  8.951817
  12459.308  12459.280  0.500  1.172511  54.793526  16.963457  8.969499
  12463.855  12463.830  0.500  1.171113  54.726622  16.966443  8.974599
  12468.453  12468.400  0.500  1.169889  54.635847  16.959048  8.976372
  12472.980  12472.980  0.500  1.168581  54.611866  16.973788  8.987746
  12477.619  12477.590  0.500  1.167226  54.550286  16.977641  8.995354
  12482.234  12482.210  0.500  1.165925  54.470797  16.974961  8.996805
  12486.873  12486.860  0.500  1.164557  54.141975  16.895591  8.957267
  12491.563  12491.520  0.500  1.163209  54.389183  16.995634  9.015461
  12496.223  12496.200  0.500  1.161826  54.325439  16.999202  9.022221
  12500.933  12500.900  0.500  1.160365  54.256854  17.002565  9.029548
  12505.634  12505.620  0.500  1.158978  54.195168  17.006815  9.037968
  12510.414  12510.360  0.500  1.157399  54.133502  17.014307  9.048430
  12515.149  12515.110  0.500  1.156060  54.072096  17.017777  9.058072
  12519.908  12519.890  0.500  1.154223  54.007336  17.028652  9.067818
  12524.740  12524.690  0.500  1.152574  53.946675  17.037598  9.079424
  12529.527  12529.500  0.500  1.150798  53.880725  17.047012  9.090819
  12534.373  12534.330  0.500  1.149325  53.816690  17.051844  9.101653
  12539.223  12539.190  0.500  1.147801  53.697882  17.040150  9.103646
  12544.111  12544.060  0.500  1.146160  53.711620  17.072503  9.126809
  12548.995  12548.950  0.500  1.144649  53.645274  17.077208  9.135203
  12553.884  12553.860  0.500  1.142990  53.578792  17.084357  9.144218
  12558.845  12558.790  0.500  1.141740  53.515406  17.085485  9.152919
  12563.783  12563.730  0.500  1.140275  53.452619  17.090465  9.162776
  12568.752  12568.700  0.500  1.138897  53.391561  17.094476  9.169190
  12573.725  12573.690  0.500  1.137470  53.325931  17.097845  9.175850
  12578.737  12578.690  0.500  1.135957  53.250681  17.099568  9.182132
  12583.773  12583.720  0.500  1.134485  53.195704  17.107090  9.191000
  12588.786  12588.760  0.500  1.133137  53.130229  17.109073  9.196414
  12593.872  12593.820  0.500  1.131494  53.068460  17.117277  9.205409
  12598.948  12598.900  0.500  1.129979  53.002505  17.121939  9.211476
  12604.035  12604.000  0.500  1.128345  52.930037  17.126486  9.220154
  12609.168  12609.120  0.500  1.126671  52.871666  17.136264  9.229320
  12614.299  12614.260  0.500  1.124997  52.803049  17.142690  9.241064
  12619.468  12619.420  0.500  1.123099  52.740521  17.154923  9.252980
  12624.635  12624.600  0.500  1.121247  52.661062  17.160829  9.262242
  12629.841  12629.790  0.500  1.119365  52.583594  17.167855  9.272108
  12635.051  12635.010  0.500  1.117707  52.471350  17.159642  9.277232
  12640.286  12640.240  0.500  1.116091  52.470897  17.187245  9.297970
  12645.547  12645.490  0.500  1.114606  52.413354  17.193909  9.309496
  12650.784  12650.760  0.500  1.112994  52.343334  17.198653  9.318810
  12656.095  12656.050  0.500  1.111324  52.279984  17.206543  9.329015
  12661.397  12661.360  0.500  1.109756  52.220594  17.213957  9.339478
  12666.745  12666.690  0.500  1.108089  52.152599  17.220230  9.349035
  12672.070  12672.040  0.500  1.106555  52.081435  17.223144  9.359634
  12677.449  12677.410  0.500  1.104899  52.017889  17.230634  9.370259
  12682.818  12682.790  0.500  1.103276  51.951913  17.236729  9.379083
  12688.241  12688.200  0.500  1.101884  51.883119  17.237891  9.388109
  12693.662  12693.620  0.500  1.100318  51.814831  17.242178  9.396573
  12699.115  12699.070  0.500  1.098723  51.737998  17.244085  9.404090
  12704.580  12704.530  0.500  1.097071  51.676536  17.252076  9.412873
  12710.057  12710.010  0.500  1.095380  51.782015  17.316554  9.454580
  12715.567  12715.510  0.500  1.093703  51.717733  17.324079  9.463194
  12721.053  12721.030  0.500  1.091971  51.648393  17.330853  9.473015
  12726.615  12726.570  0.500  1.090308  51.574489  17.334846  9.481903
  12732.154  12732.120  0.500  1.088361  51.493305  17.341292  9.491171
  12737.761  12737.700  0.500  1.086680  50.833595  17.147925  9.392184
  12743.352  12743.300  0.500  1.084895  51.376806  17.362138  9.516213
  12748.962  12748.910  0.500  1.083159  51.303714  17.367553  9.524288
  12754.606  12754.550  0.500  1.081571  51.236138  17.372255  9.534569
  12760.233  12760.200  0.500  1.079976  51.162084  17.374834  9.542905
  12765.915  12765.870  0.500  1.078241  51.094000  17.381848  9.553649
  12771.588  12771.560  0.500  1.076543  51.025626  17.388078  9.566533
