# XDI/1.0 BlueSky/1.10.0 BMM/2023-1.0-py310-tiled
# Beamline.name: BMM (06BM) -- Beamline for Materials Measurement (NIST)
# Beamline.xray_source: NSLS-II three-pole wiggler
# Beamline.collimation: paraboloid mirror, 5 nm Rh on 30 nm Pt
# Beamline.focusing: not in use
# Beamline.harmonic_rejection: flat mirror, Si stripe, pitch = 7.0 mrad relative to beam
# Beamline.software: Bluesky 1.10.0, Ophyd 1.7.0, DataBroker 2.0.0b13, Python 3.10.8, 2023-1.0-py310-tiled
# Detector.I0: 10 cm N2
# Detector.I1: 25 cm N2
# Detector.I2: 25 cm N2
# Element.symbol: Ce
# Element.edge: L3
# Element.reference: Ce
# Element.reference_material: CeO2
# Facility.name: NSLS-II
# Facility.energy: 3.0
# Facility.current: 399.4
# Facility.mode: top-off
# Facility.GUP: 301027
# Facility.SAF: 310583
# Facility.cycle: 2023-2
# Mono.name: Si(111)
# Mono.d_spacing: 3.1351860
# Mono.encoder_resolution: 0.0000050 deg/ct
# Mono.angle_offset: 16.0754326 deg
# Mono.scan_mode: pseudo channel cut
# Mono.scan_type: step
# Mono.direction: forward in energy
# Sample.name: CeO2
# Sample.prep: PEG pellet
# Sample.x: 109.138 mm
# Sample.y: 153.150 mm
# Sample.SDD_position: 205.000 mm
# Scan.experimenters: Bruce Ravel
# Scan.edge_energy: 5723.4
# Scan.start_time: 2023-05-28T11:35:38
# Scan.end_time: 2023-05-28T11:42:04
# Scan.transient_id: 78644
# Scan.uid: e13d55a0-0798-448d-a14f-21bb283d69b5
# Scan.plot_hint: ln(It/Ir)  --  ln($6/$7)
# Column.1: energy eV
# Column.2: requested_energy eV
# Column.3: measurement_time seconds
# Column.4: xmu 
# Column.5: I0 nA
# Column.6: It nA
# Column.7: Ir nA
# ///////////
# sample courtesy Martin Stennett, University of Sheffield
# -----------
# energy  requested_energy  measurement_time  xmu  I0  It  Ir
  5523.408  5523.400  0.500  3.252136  111.162937  49.996598  1.934442
  5533.408  5533.400  0.500  3.234144  111.659735  50.633437  1.994649
  5543.417  5543.400  0.500  3.216906  112.073751  51.230493  2.053261
  5553.396  5553.400  0.500  3.199430  112.469296  51.796772  2.112554
  5563.412  5563.400  0.500  3.182389  112.972277  52.418240  2.174646
  5573.413  5573.400  0.500  3.165417  113.400524  53.023654  2.237415
  5583.408  5583.400  0.500  3.148511  113.797144  53.648614  2.302384
  5593.410  5593.400  0.500  3.131785  114.177768  54.208752  2.365661
  5603.408  5603.400  0.500  3.115174  114.522337  54.801629  2.431591
  5613.407  5613.400  0.500  3.098953  114.867726  55.402779  2.498465
  5623.407  5623.400  0.500  3.082446  115.164530  55.962394  2.565706
  5633.388  5633.400  0.500  3.066163  114.791965  56.196655  2.618743
  5643.384  5643.400  0.500  3.050155  114.831336  56.633374  2.681679
  5653.384  5653.400  0.500  3.034185  115.082848  57.178657  2.751086
  5663.392  5663.400  0.500  3.018256  115.314709  57.713703  2.821415
  5673.399  5673.400  0.500  3.002704  115.547118  58.247895  2.892161
  5683.399  5683.400  0.500  2.986784  115.672290  58.737764  2.963287
  5693.402  5693.400  0.500  2.971398  115.903491  59.260095  3.035991
  5695.396  5695.400  0.500  2.968306  115.921859  59.351188  3.050074
  5697.393  5697.400  0.500  2.965252  115.969576  59.413290  3.062604
  5699.392  5699.400  0.500  2.962617  115.983872  59.527576  3.076592
  5701.395  5701.400  0.500  2.959524  116.002000  59.645335  3.092228
  5703.387  5703.400  0.500  2.956675  116.048582  59.769120  3.107485
  5705.399  5705.400  0.500  2.953594  116.054820  59.812981  3.119361
  5707.401  5707.400  0.500  2.950839  116.093747  59.925007  3.133827
  5709.401  5709.400  0.500  2.948281  116.114892  60.017247  3.146689
  5711.399  5711.400  0.500  2.945479  116.160754  60.133091  3.161609
  5713.399  5713.400  0.500  2.943056  116.197906  60.241875  3.175012
  5713.689  5713.700  0.500  2.942666  116.217997  60.254421  3.176914
  5713.988  5714.000  0.500  2.942496  116.212445  60.275277  3.178553
  5714.288  5714.300  0.500  2.942189  116.192382  60.293409  3.180485
  5714.591  5714.600  0.500  2.941815  116.208579  60.302996  3.182182
  5714.891  5714.900  0.500  2.941395  116.191770  60.314365  3.184117
  5715.189  5715.200  0.500  2.941487  116.240590  60.366626  3.186585
  5715.490  5715.500  0.500  2.940940  116.213579  60.356645  3.187799
  5715.791  5715.800  0.500  2.940792  116.216016  60.356249  3.188250
  5716.094  5716.100  0.500  2.940484  116.210433  60.373180  3.190127
  5716.390  5716.400  0.500  2.940295  116.216075  60.405765  3.192454
  5716.689  5716.700  0.500  2.939955  116.207212  60.400625  3.193267
  5716.990  5717.000  0.500  2.939744  116.230206  60.424379  3.195195
  5717.293  5717.300  0.500  2.939499  116.202735  60.428577  3.196201
  5717.593  5717.600  0.500  2.939503  116.204665  60.426715  3.196091
  5717.891  5717.900  0.500  2.939272  116.195757  60.406956  3.195783
  5718.193  5718.200  0.500  2.939127  116.214399  60.437583  3.197868
  5718.494  5718.500  0.500  2.939363  116.192343  60.443379  3.197420
  5718.793  5718.800  0.500  2.939440  116.174176  60.483935  3.199319
  5719.094  5719.100  0.500  2.939527  116.201198  60.499286  3.199853
  5719.392  5719.400  0.500  2.939820  116.198531  60.485152  3.198167
  5719.695  5719.700  0.500  2.939821  116.186566  60.493261  3.198593
  5719.996  5720.000  0.500  2.940393  116.170845  60.490221  3.196603
  5720.295  5720.300  0.500  2.940814  116.199543  60.504519  3.196014
  5720.595  5720.600  0.500  2.941298  116.193658  60.530405  3.195834
  5720.897  5720.900  0.500  2.941643  116.171136  60.568594  3.196746
  5721.197  5721.200  0.500  2.941785  116.206481  60.592220  3.197539
  5721.498  5721.500  0.500  2.942043  116.202945  60.600573  3.197156
  5721.792  5721.800  0.500  2.942144  116.229352  60.576821  3.195579
  5722.093  5722.100  0.500  2.942054  116.217789  60.581856  3.196133
  5722.394  5722.400  0.500  2.942298  116.204699  60.617613  3.197239
  5722.699  5722.700  0.500  2.942684  116.207017  60.631201  3.196723
  5722.997  5723.000  0.500  2.943618  116.180911  60.631703  3.193762
  5723.295  5723.300  0.500  2.944637  116.173329  60.688473  3.193498
  5723.600  5723.600  0.500  2.945952  116.209502  60.692957  3.189538
  5723.898  5723.900  0.500  2.947316  116.205992  60.697999  3.185455
  5724.194  5724.200  0.500  2.949129  116.212895  60.714852  3.180568
  5724.495  5724.500  0.500  2.951465  116.198585  60.732424  3.174063
  5724.798  5724.800  0.500  2.953900  116.193874  60.742492  3.166869
  5725.094  5725.100  0.500  2.956964  116.228712  60.773947  3.158816
  5725.400  5725.400  0.500  2.960567  116.208790  60.767755  3.147136
  5725.701  5725.700  0.500  2.965042  116.194180  60.765957  3.132990
  5726.001  5726.000  0.500  2.969901  116.218404  60.806445  3.119879
  5726.299  5726.300  0.500  2.975135  116.214283  60.809725  3.103761
  5726.599  5726.600  0.500  2.980229  116.213725  60.812008  3.088106
  5726.896  5726.900  0.500  2.984737  116.219559  60.855097  3.076395
  5727.198  5727.200  0.500  2.988948  116.190469  60.842363  3.062826
  5727.495  5727.500  0.500  2.992330  116.217616  60.821305  3.051428
  5727.801  5727.800  0.500  2.994735  116.179400  60.843333  3.045202
  5728.100  5728.100  0.500  2.996740  116.186639  60.853668  3.039619
  5728.400  5728.400  0.500  2.998593  116.192718  60.838996  3.033260
  5728.701  5728.700  0.500  3.000369  116.225404  60.885518  3.030193
  5728.997  5729.000  0.500  3.002554  116.233772  60.924069  3.025494
  5729.299  5729.300  0.500  3.004638  116.202902  60.921991  3.019092
  5729.600  5729.600  0.500  3.007150  116.217833  60.965475  3.013668
  5729.901  5729.900  0.500  3.009146  116.224761  60.969588  3.007862
  5730.199  5730.200  0.500  3.011320  116.244529  60.974864  3.001588
  5730.505  5730.500  0.500  3.012893  116.210777  60.962612  2.996269
  5730.802  5730.800  0.500  3.014607  116.237985  60.963697  2.991191
  5731.098  5731.100  0.500  3.015731  116.253363  60.989133  2.989078
  5731.398  5731.400  0.500  3.016499  116.230782  61.019865  2.988289
  5731.696  5731.700  0.500  3.016283  116.227747  61.049048  2.990363
  5732.002  5732.000  0.500  3.015765  116.243981  61.035924  2.991267
  5732.299  5732.300  0.500  3.014452  116.265304  61.058007  2.996282
  5732.602  5732.600  0.500  3.012288  116.249168  61.081382  3.003922
  5732.903  5732.900  0.500  3.009734  116.258828  61.114508  3.013237
  5733.200  5733.200  0.500  3.007370  116.242510  61.100582  3.019681
  5733.501  5733.500  0.500  3.004465  116.237164  61.107145  3.028791
  5733.798  5733.800  0.500  3.001967  116.271899  61.150590  3.038527
  5734.100  5734.100  0.500  2.999659  116.257680  61.163629  3.046197
  5734.400  5734.400  0.500  2.997805  116.263144  61.140667  3.050704
  5734.704  5734.700  0.500  2.996451  116.251894  61.133883  3.054499
  5735.002  5735.000  0.500  2.995533  116.260537  61.162867  3.058753
  5735.305  5735.300  0.500  2.995266  116.254809  61.169859  3.059918
  5735.596  5735.600  0.500  2.995315  116.254004  61.174117  3.059983
  5735.900  5735.900  0.500  2.995778  116.254640  61.191240  3.059422
  5736.197  5736.200  0.500  2.996482  116.255758  61.206326  3.058022
  5736.500  5736.500  0.500  2.997413  116.265490  61.244498  3.057081
  5736.800  5736.800  0.500  2.998459  116.277893  61.277657  3.055541
  5737.103  5737.100  0.500  2.999381  116.264905  61.257395  3.051715
  5737.403  5737.400  0.500  3.000297  116.265373  61.276538  3.049874
  5737.704  5737.700  0.500  3.000750  116.246871  61.307958  3.050054
  5738.001  5738.000  0.500  3.001176  116.244962  61.326496  3.049679
  5738.300  5738.300  0.500  3.001170  116.248383  61.316709  3.049208
  5738.599  5738.600  0.500  3.000606  116.272537  61.309065  3.050548
  5738.902  5738.900  0.500  2.999917  116.277415  61.339847  3.054184
  5739.202  5739.200  0.500  2.998775  116.268869  61.395699  3.060458
  5739.505  5739.500  0.500  2.997616  116.267874  61.383554  3.063402
  5739.804  5739.800  0.500  2.996202  116.283900  61.376577  3.067387
  5740.106  5740.100  0.500  2.994250  116.284991  61.410774  3.075094
  5740.401  5740.400  0.500  2.992100  116.290737  61.431157  3.082736
  5740.701  5740.700  0.500  2.989831  116.286417  61.452188  3.090794
  5741.001  5741.000  0.500  2.987237  116.282348  61.459109  3.099174
  5741.305  5741.300  0.500  2.984312  116.258646  61.448410  3.107708
  5741.602  5741.600  0.500  2.981228  116.272165  61.475467  3.118680
  5741.907  5741.900  0.500  2.977887  116.258069  61.485278  3.129616
  5742.203  5742.200  0.500  2.974584  116.285647  61.521250  3.141808
  5742.508  5742.500  0.500  2.971140  116.293260  61.551157  3.154181
  5742.805  5742.800  0.500  2.968375  116.273120  61.534798  3.162072
  5743.103  5743.100  0.500  2.965624  116.318267  61.570977  3.172648
  5743.401  5743.400  0.500  2.963262  116.322029  61.578391  3.180533
  5743.701  5743.700  0.500  2.960740  116.314588  61.591548  3.189246
  5744.002  5744.000  0.500  2.958744  116.303594  61.589996  3.195537
  5744.306  5744.300  0.500  2.957028  116.295877  61.601058  3.201601
  5744.601  5744.600  0.500  2.955169  116.290772  61.587602  3.206859
  5744.904  5744.900  0.500  2.953614  116.300087  61.610312  3.213031
  5745.203  5745.200  0.500  2.952302  116.314324  61.612185  3.217347
  5745.504  5745.500  0.500  2.950837  116.739992  61.852858  3.234652
  5745.800  5745.800  0.500  2.949695  116.778407  61.875843  3.239550
  5746.097  5746.100  0.500  2.948594  116.803920  61.900574  3.244417
  5746.398  5746.400  0.500  2.947585  116.802899  61.920605  3.248741
  5746.699  5746.700  0.500  2.946742  116.796587  61.957573  3.253423
  5747.003  5747.000  0.500  2.945750  116.794531  61.980223  3.257845
  5747.303  5747.300  0.500  2.944723  116.793385  61.986451  3.261518
  5747.599  5747.600  0.500  2.943833  116.830265  62.032152  3.266829
  5747.898  5747.900  0.500  2.943017  116.784864  62.036153  3.269706
  5748.200  5748.200  0.500  2.942191  116.807505  62.055098  3.273409
  5748.400  5748.400  0.500  2.941855  116.836272  62.051891  3.274338
  5749.398  5749.390  0.500  2.939226  116.854223  62.081547  3.284527
  5750.402  5750.390  0.500  2.936779  116.850343  62.125241  3.294890
  5751.422  5751.410  0.500  2.934885  116.808910  62.156442  3.302797
  5752.479  5752.460  0.500  2.933427  116.824564  62.202081  3.310043
  5753.516  5753.520  0.500  2.932623  116.839479  62.297067  3.317765
  5754.595  5754.600  0.500  2.931796  116.834535  62.303370  3.320847
  5755.700  5755.700  0.500  2.930517  116.810763  62.323132  3.326150
  5756.821  5756.820  0.500  2.929562  116.828518  62.369643  3.331815
  5757.965  5757.960  0.500  2.928268  116.831930  62.430445  3.339381
  5759.113  5759.110  0.500  2.927661  116.815377  62.489239  3.344555
  5760.296  5760.290  0.500  2.927098  116.825599  62.535450  3.348913
  5761.483  5761.480  0.500  2.926604  116.815966  62.587180  3.353340
  5762.709  5762.700  0.500  2.925826  116.812608  62.649454  3.359287
  5763.933  5763.930  0.500  2.924884  116.769560  62.680691  3.364129
  5765.186  5765.180  0.500  2.924144  116.792501  62.751249  3.370411
  5766.452  5766.450  0.500  2.923942  116.814336  62.820324  3.374802
  5767.746  5767.740  0.500  2.923267  116.825103  62.877986  3.380179
  5769.053  5769.050  0.500  2.922054  116.831918  62.936728  3.387444
  5770.387  5770.380  0.500  2.920071  116.833089  62.987611  3.396914
  5771.737  5771.730  0.500  2.918081  116.835429  63.031461  3.406048
  5773.102  5773.100  0.500  2.915868  116.810397  63.064750  3.415398
  5774.489  5774.480  0.500  2.913856  116.799548  63.156469  3.427255
  5775.895  5775.890  0.500  2.911354  116.793553  63.211993  3.438861
  5777.315  5777.310  0.500  2.908736  116.797429  63.267609  3.450907
  5778.759  5778.750  0.500  2.905582  116.795927  63.331534  3.465308
  5780.215  5780.210  0.500  2.902501  116.762844  63.392736  3.479361
  5781.695  5781.690  0.500  2.899496  116.735472  63.426304  3.491677
  5783.196  5783.190  0.500  2.896478  116.698144  63.455291  3.503832
  5784.715  5784.710  0.500  2.893236  116.754419  63.519303  3.518756
  5786.259  5786.250  0.500  2.890356  116.733051  63.609695  3.533929
  5787.815  5787.810  0.500  2.887702  116.739207  63.678501  3.547153
  5789.386  5789.380  0.500  2.885037  116.761282  63.756449  3.560971
  5790.990  5790.980  0.500  2.882648  116.766922  63.826874  3.573433
  5792.597  5792.590  0.500  2.880280  116.722294  63.822025  3.581631
  5794.233  5794.230  0.500  2.877901  116.700495  63.889904  3.593979
  5795.890  5795.880  0.500  2.875187  116.682317  63.979764  3.608816
  5797.560  5797.550  0.500  2.872687  116.723090  64.093136  3.624261
  5799.248  5799.240  0.500  2.869765  116.706653  64.148579  3.638012
  5800.957  5800.950  0.500  2.866878  116.716211  64.217438  3.652444
  5802.691  5802.680  0.500  2.864572  116.693385  64.281632  3.664536
  5804.439  5804.430  0.500  2.862060  116.693372  64.360590  3.678267
  5806.198  5806.190  0.500  2.860070  116.669390  64.392522  3.687424
  5807.985  5807.980  0.500  2.857602  116.642385  64.478194  3.701450
  5809.786  5809.780  0.500  2.855773  116.614336  64.527365  3.711055
  5811.623  5811.610  0.500  2.853659  116.588894  64.603055  3.723273
  5813.459  5813.450  0.500  2.851690  116.569715  64.684915  3.735335
  5815.321  5815.310  0.500  2.849331  116.510723  64.671647  3.743391
  5817.198  5817.190  0.500  2.847329  116.490307  64.736239  3.754639
  5819.097  5819.090  0.500  2.845036  116.483908  64.844682  3.769563
  5821.017  5821.010  0.500  2.842627  116.414202  64.904197  3.782121
  5822.958  5822.950  0.500  2.840254  116.423314  64.983221  3.795725
  5824.921  5824.910  0.500  2.837887  116.365998  65.037039  3.807868
  5826.892  5826.880  0.500  2.835312  116.330354  65.104354  3.821640
  5828.889  5828.880  0.500  2.832694  116.277094  65.166680  3.835327
  5830.901  5830.890  0.500  2.829899  116.256782  65.287676  3.853202
  5832.931  5832.920  0.500  2.826642  116.229830  65.309185  3.867045
  5834.988  5834.980  0.500  2.823608  116.181680  65.341521  3.880718
  5837.057  5837.050  0.500  2.820280  116.078875  65.366028  3.895112
  5839.146  5839.140  0.500  2.817277  116.040402  65.449628  3.911825
  5841.260  5841.250  0.500  2.814014  116.029516  65.531326  3.929507
  5843.392  5843.380  0.500  2.810588  115.944152  65.577543  3.945776
  5845.534  5845.520  0.500  2.807127  115.845235  65.623914  3.962254
  5847.699  5847.690  0.500  2.803952  115.789666  65.666243  3.977420
  5849.890  5849.880  0.500  2.800658  115.690916  65.708860  3.993132
  5852.091  5852.080  0.500  2.797321  115.617226  65.748953  4.008923
  5854.311  5854.300  0.500  2.794155  115.489592  65.767466  4.022770
  5856.561  5856.550  0.500  2.790801  115.371638  65.793480  4.037880
  5858.821  5858.810  0.500  2.787794  115.219979  65.811682  4.051162
  5861.098  5861.090  0.500  2.784961  115.109104  65.807817  4.062414
  5863.397  5863.390  0.500  2.781458  114.928271  65.825547  4.077770
  5865.719  5865.710  0.500  2.778037  114.589188  65.741749  4.086536
  5868.056  5868.050  0.500  2.774999  114.045457  65.529377  4.085728
  5870.409  5870.400  0.500  2.771682  112.733881  64.877108  4.058496
  5872.789  5872.780  0.500  2.768230  100.947374  58.170182  3.651518
  5875.179  5875.170  0.500  2.765502  115.005279  66.389779  4.178869
  5877.596  5877.590  0.500  2.762355  116.103800  67.123776  4.238391
  5880.028  5880.020  0.500  2.759099  115.714599  66.994327  4.244010
  5882.479  5882.470  0.500  2.755214  115.394845  66.856772  4.251782
  5884.956  5884.950  0.500  2.751535  115.187155  66.831008  4.265809
  5887.446  5887.440  0.500  2.748191  114.996926  66.853549  4.281545
  5889.954  5889.950  0.500  2.744815  114.850344  66.892686  4.298537
  5892.476  5892.470  0.500  2.741539  114.638308  66.877530  4.311664
  5895.027  5895.020  0.500  2.738347  114.431846  66.866247  4.324720
  5897.600  5897.590  0.500  2.735147  114.280515  66.899280  4.340726
  5900.178  5900.170  0.500  2.732073  114.105072  66.869130  4.352125
  5902.785  5902.780  0.500  2.728909  113.891721  66.855066  4.365000
  5905.407  5905.400  0.500  2.725479  113.610694  66.804003  4.376653
  5908.052  5908.050  0.500  2.722103  113.325511  66.712628  4.385445
  5910.717  5910.710  0.500  2.718398  112.928887  66.598123  4.394167
  5913.394  5913.390  0.500  2.714599  111.949522  66.169263  4.382492
  5916.096  5916.090  0.500  2.710044  103.268896  61.125579  4.066921
  5918.817  5918.810  0.500  2.707174  112.998850  67.016218  4.471665
  5921.558  5921.550  0.500  2.703107  113.959779  67.666681  4.533468
  5924.305  5924.300  0.500  2.699022  113.396169  67.454716  4.537767
  5927.088  5927.080  0.500  2.695175  112.683258  67.143631  4.534248
  5929.879  5929.870  0.500  2.691028  112.098195  66.898237  4.536449
  5932.703  5932.690  0.500  2.687175  113.527258  67.863764  4.619687
  5935.543  5935.520  0.500  2.683217  112.961485  67.647554  4.623231
  5938.394  5938.370  0.500  2.679297  112.322086  67.393489  4.623958
  5941.262  5941.250  0.500  2.675582  111.320258  66.896201  4.606923
  5944.163  5944.140  0.500  2.672163  107.462848  64.698108  4.470805
  5947.063  5947.050  0.500  2.668655  110.919364  66.879530  4.637791
  5949.962  5949.970  0.500  2.664716  112.816806  68.146901  4.744330
  5952.943  5952.920  0.500  2.660955  112.402331  68.029809  4.754023
  5955.901  5955.890  0.500  2.657349  112.096792  67.965060  4.766655
  5958.896  5958.870  0.500  2.653562  111.841441  67.926474  4.782025
  5961.875  5961.880  0.500  2.649724  111.559312  67.876150  4.796857
  5964.894  5964.900  0.500  2.645759  111.273070  67.805642  4.810911
  5967.939  5967.950  0.500  2.641707  111.031976  67.762917  4.827399
  5971.030  5971.010  0.500  2.637526  110.773478  67.726877  4.845046
  5974.098  5974.090  0.500  2.633409  110.500043  67.662927  4.860441
  5977.190  5977.190  0.500  2.629216  110.193951  67.626133  4.878212
  5980.304  5980.310  0.500  2.625186  109.775036  67.478571  4.887223
  5983.448  5983.450  0.500  2.621053  109.205830  67.250468  4.890872
  5986.614  5986.600  0.500  2.617041  107.975159  66.626109  4.864946
  5989.778  5989.780  0.500  2.612085  95.017754  58.773660  4.312893
  5992.965  5992.970  0.500  2.609273  111.012160  68.761930  5.060056
  5996.182  5996.190  0.500  2.605396  110.393196  68.477465  5.058697
  5999.408  5999.420  0.500  2.601686  109.844582  68.265580  5.061790
  6002.661  6002.670  0.500  2.597800  109.377467  68.104746  5.069523
  6005.939  6005.950  0.500  2.594049  109.040227  68.018482  5.082132
  6009.226  6009.240  0.500  2.589784  108.764842  67.977957  5.100809
  6012.540  6012.550  0.500  2.585573  108.444006  67.922703  5.118173
  6015.864  6015.870  0.500  2.581077  108.157945  67.860209  5.136507
  6019.214  6019.220  0.500  2.576593  107.865744  67.791115  5.154335
  6022.582  6022.590  0.500  2.572181  107.535774  67.725008  5.172079
  6025.962  6025.970  0.500  2.567667  107.254986  67.711480  5.194438
  6029.370  6029.380  0.500  2.563371  106.934078  67.612927  5.209212
  6032.787  6032.800  0.500  2.558618  106.597879  67.528791  5.227518
  6036.266  6036.250  0.500  2.554205  106.236501  67.446155  5.244212
  6039.719  6039.710  0.500  2.549934  105.890988  67.351703  5.259280
  6043.186  6043.190  0.500  2.545254  105.545781  67.242849  5.275413
  6046.699  6046.690  0.500  2.541334  105.193375  67.137733  5.287851
  6050.221  6050.210  0.500  2.536972  104.798257  67.050402  5.304060
  6053.757  6053.750  0.500  2.532682  104.404194  66.943260  5.318351
  6057.285  6057.300  0.500  2.528414  103.837220  66.697545  5.321496
  6060.869  6060.880  0.500  2.524228  103.357535  66.523299  5.329856
  6064.466  6064.480  0.500  2.519945  102.850400  66.326509  5.336900
  6068.074  6068.090  0.500  2.515664  102.412004  66.194184  5.349103
  6071.723  6071.720  0.500  2.511112  102.017216  66.072078  5.363595
  6075.375  6075.380  0.500  2.506755  101.600630  65.922141  5.374790
  6079.039  6079.050  0.500  2.502259  101.421078  65.928646  5.399539
  6082.732  6082.740  0.500  2.497508  100.953044  65.752260  5.410743
  6086.438  6086.450  0.500  2.492931  100.447156  65.579096  5.421246
  6090.163  6090.180  0.500  2.488242  99.954209  65.380831  5.430261
  6093.902  6093.920  0.500  2.483522  99.426748  65.126905  5.434763
  6097.684  6097.690  0.500  2.478960  98.873677  64.917987  5.442099
  6101.466  6101.480  0.500  2.474131  98.338221  64.708490  5.450796
  6105.294  6105.280  0.500  2.469499  97.696317  64.416024  5.451353
  6109.100  6109.110  0.500  2.464877  97.106585  64.161538  5.454970
  6112.959  6112.950  0.500  2.460298  96.482074  63.908111  5.458359
  6116.795  6116.810  0.500  2.456195  95.877246  63.607326  5.455008
  6120.702  6120.690  0.500  2.451695  95.212872  63.278894  5.451313
  6124.577  6124.590  0.500  2.447176  94.535223  62.962509  5.448627
  6128.492  6128.510  0.500  2.442642  93.857930  62.636875  5.445079
  6132.464  6132.450  0.500  2.437801  93.148007  62.297903  5.441892
  6136.393  6136.410  0.500  2.432872  92.389503  61.947251  5.437999
  6140.367  6140.380  0.500  2.427997  91.580163  61.525804  5.427395
