# XDI/1.0 BlueSky/1.10.0 BMM/2023-1.0-py310-tiled
# Beamline.name: BMM (06BM) -- Beamline for Materials Measurement (NIST)
# Beamline.xray_source: NSLS-II three-pole wiggler
# Beamline.collimation: paraboloid mirror, 5 nm Rh on 30 nm Pt
# Beamline.focusing: not in use
# Beamline.harmonic_rejection: flat mirror, Pt stripe, pitch = 7.0 mrad relative to beam
# Beamline.software: Bluesky 1.10.0, Ophyd 1.7.0, DataBroker 2.0.0b13, Python 3.10.8, 2023-1.0-py310-tiled
# Detector.I0: 10 cm N2
# Detector.I1: 25 cm N2
# Detector.I2: 25 cm N2
# Element.symbol: Se
# Element.edge: K
# Element.reference: Se
# Element.reference_material: Se metal powder
# Facility.name: NSLS-II
# Facility.energy: 3.0
# Facility.current: 400.1
# Facility.mode: top-off
# Facility.GUP: 301027
# Facility.SAF: 310583
# Facility.cycle: 2023-2
# Mono.name: Si(111)
# Mono.d_spacing: 3.1351860
# Mono.encoder_resolution: 0.0000050 deg/ct
# Mono.angle_offset: 16.0754326 deg
# Mono.scan_mode: pseudo channel cut
# Mono.scan_type: step
# Mono.direction: forward in energy
# Sample.name: Se metal powder
# Sample.prep: PEG pellet
# Sample.x: 109.138 mm
# Sample.y: 153.150 mm
# Sample.SDD_position: 205.000 mm
# Scan.experimenters: Bruce Ravel
# Scan.edge_energy: 12657.8
# Scan.start_time: 2023-05-28T20:02:13
# Scan.end_time: 2023-05-28T20:10:13
# Scan.transient_id: 78973
# Scan.uid: 5adf3c73-f196-4040-a5ad-152d084f3e95
# Scan.plot_hint: ln(It/Ir)  --  ln($6/$7)
# Column.1: energy eV
# Column.2: requested_energy eV
# Column.3: measurement_time seconds
# Column.4: xmu 
# Column.5: I0 nA
# Column.6: It nA
# Column.7: Ir nA
# ///////////
# sample courtesy Martin Stennett, University of Sheffield
# -----------
# energy  requested_energy  measurement_time  xmu  I0  It  Ir
  12457.799  12457.800  0.500  0.449711  54.254636  93.473288  59.618455
  12467.850  12467.800  0.500  0.448663  54.092627  93.218973  59.518550
  12477.863  12477.800  0.500  0.447701  54.002229  93.087656  59.491950
  12487.906  12487.800  0.500  0.446697  53.772650  92.727899  59.321521
  12497.856  12497.800  0.500  0.445801  53.768252  92.748897  59.388176
  12507.863  12507.800  0.500  0.444777  53.646061  92.560121  59.328007
  12517.880  12517.800  0.500  0.443848  53.520444  92.372657  59.262866
  12527.762  12527.800  0.500  0.442887  53.373287  92.147753  59.175402
  12537.777  12537.800  0.500  0.441892  53.229336  91.926034  59.091798
  12547.794  12547.800  0.500  0.441036  53.147106  91.813559  59.070036
  12557.780  12557.800  0.500  0.440111  53.013567  91.605964  58.991026
  12567.802  12567.800  0.500  0.439308  52.891941  91.425280  58.921973
  12577.819  12577.800  0.500  0.438477  52.755093  91.214238  58.834837
  12587.798  12587.800  0.500  0.437788  52.643640  91.053749  58.771787
  12597.820  12597.800  0.500  0.437178  52.516531  90.852832  58.677913
  12607.817  12607.800  0.500  0.436763  52.394895  90.665056  58.580915
  12617.823  12617.800  0.500  0.436645  52.272005  90.480327  58.468440
  12627.838  12627.800  0.500  0.437384  52.082028  90.175402  58.228379
  12629.771  12629.800  0.500  0.437767  52.124103  90.254301  58.257005
  12631.753  12631.800  0.500  0.438255  52.103500  90.226129  58.210378
  12633.763  12633.800  0.500  0.438712  52.016271  90.086773  58.093949
  12635.747  12635.800  0.500  0.439448  52.047172  90.144258  58.088266
  12637.765  12637.800  0.500  0.440381  52.027357  90.113746  58.014435
  12639.778  12639.800  0.500  0.441670  52.001731  90.076593  57.915788
  12641.777  12641.800  0.500  0.443221  51.913003  89.932166  57.733313
  12643.755  12643.800  0.500  0.445552  51.952330  89.996789  57.640292
  12645.763  12645.800  0.500  0.448727  51.927506  89.951375  57.428583
  12647.757  12647.800  0.500  0.453613  51.899844  89.921723  57.129839
  12648.043  12648.100  0.500  0.454513  51.884467  89.899870  57.064579
  12648.342  12648.400  0.500  0.455440  51.884515  89.889247  57.004961
  12648.642  12648.700  0.500  0.456478  51.869368  89.869880  56.933525
  12648.942  12649.000  0.500  0.457685  51.868101  89.865762  56.862277
  12649.242  12649.300  0.500  0.458906  51.863923  89.857421  56.787598
  12649.556  12649.600  0.500  0.460435  51.858755  89.852122  56.697515
  12649.842  12649.900  0.500  0.461786  51.856335  89.844850  56.616367
  12650.149  12650.200  0.500  0.463511  51.850206  89.840917  56.516324
  12650.463  12650.500  0.500  0.465301  51.854253  89.845204  56.417930
  12650.763  12650.800  0.500  0.467441  51.848633  89.837180  56.292290
  12651.056  12651.100  0.500  0.469552  51.847937  89.827810  56.167754
  12651.370  12651.400  0.500  0.472064  51.840530  89.815309  56.019057
  12651.663  12651.700  0.500  0.474807  51.836970  89.815122  55.865449
  12651.970  12652.000  0.500  0.477865  51.838020  89.820922  55.698486
  12652.263  12652.300  0.500  0.481210  51.826742  89.796805  55.497569
  12652.577  12652.600  0.500  0.484978  51.823229  89.790425  55.284929
  12652.877  12652.900  0.500  0.489408  51.811904  89.783978  55.036627
  12653.170  12653.200  0.500  0.494135  51.808150  89.773453  54.770662
  12653.477  12653.500  0.500  0.499537  51.809931  89.780388  54.479799
  12653.777  12653.800  0.500  0.505840  51.808287  89.777886  54.135943
  12654.071  12654.100  0.500  0.513042  51.792639  89.748964  53.730170
  12654.357  12654.400  0.500  0.520947  51.795522  89.750921  53.308240
  12654.678  12654.700  0.500  0.531132  51.788708  89.737029  52.759914
  12654.978  12655.000  0.500  0.543391  51.786948  89.731591  52.113918
  12655.271  12655.300  0.500  0.556789  51.777715  89.715855  51.411313
  12655.564  12655.600  0.500  0.573206  51.776352  89.729180  50.581722
  12655.879  12655.900  0.500  0.594575  51.768763  89.716698  49.505429
  12656.158  12656.200  0.500  0.617086  51.764156  89.702191  48.395629
  12656.465  12656.500  0.500  0.646395  51.760330  89.689853  46.991296
  12656.772  12656.800  0.500  0.682953  51.755174  89.684886  45.301932
  12657.066  12657.100  0.500  0.720877  51.836346  89.839860  43.691433
  12657.359  12657.400  0.500  0.767172  51.902450  89.955331  41.768449
  12657.666  12657.700  0.500  0.816541  51.905699  89.954000  39.755865
  12657.974  12658.000  0.500  0.864566  51.903676  89.960743  37.894547
  12658.295  12658.300  0.500  0.913879  51.899017  89.955058  36.068923
  12658.581  12658.600  0.500  0.950794  51.897789  89.952549  34.760717
  12658.875  12658.900  0.500  0.977083  51.896057  89.947105  33.856752
  12659.189  12659.200  0.500  0.990807  51.889618  89.944460  33.394304
  12659.490  12659.500  0.500  0.990262  51.890792  89.941016  33.411236
  12659.804  12659.800  0.500  0.977033  51.886134  89.928509  33.851444
  12660.083  12660.100  0.500  0.957789  51.881574  89.929442  34.509555
  12660.384  12660.400  0.500  0.931330  51.879626  89.928847  35.434591
  12660.691  12660.700  0.500  0.902757  51.872917  89.915845  36.456414
  12660.985  12661.000  0.500  0.873270  51.862160  89.891746  37.537321
  12661.306  12661.300  0.500  0.843850  51.863885  89.902013  38.662524
  12661.600  12661.600  0.500  0.817827  51.850986  89.877054  39.670821
  12661.907  12661.900  0.500  0.793346  51.855019  89.880409  40.655507
  12662.187  12662.200  0.500  0.773648  51.848931  89.875481  41.461974
  12662.501  12662.500  0.500  0.755352  51.844463  89.863722  42.222043
  12662.795  12662.800  0.500  0.742995  51.843069  89.857244  42.743921
  12663.088  12663.100  0.500  0.735062  51.824436  89.840535  43.076343
  12663.389  12663.400  0.500  0.731021  51.825312  89.839001  43.250020
  12663.669  12663.700  0.500  0.730645  51.817737  89.828228  43.261099
  12663.997  12664.000  0.500  0.733727  51.819331  89.820087  43.124102
  12664.277  12664.300  0.500  0.738324  51.808102  89.810700  42.921817
  12664.585  12664.600  0.500  0.744510  51.803641  89.794771  42.649561
  12664.871  12664.900  0.500  0.751056  51.806422  89.808667  42.377840
  12665.186  12665.200  0.500  0.757886  51.797028  89.790875  42.081057
  12665.480  12665.500  0.500  0.763667  51.791095  89.777144  41.832061
  12665.794  12665.800  0.500  0.769447  51.786053  89.776277  41.590577
  12666.088  12666.100  0.500  0.773925  51.781638  89.751524  41.393347
  12666.396  12666.400  0.500  0.777486  51.774002  89.758969  41.249621
  12666.710  12666.700  0.500  0.780177  51.769625  89.751367  41.135282
  12666.997  12667.000  0.500  0.782014  51.766247  89.743695  41.056294
  12667.319  12667.300  0.500  0.782927  51.759764  89.729911  41.012512
  12667.606  12667.600  0.500  0.783343  51.750555  89.727410  40.994326
  12667.914  12667.900  0.500  0.783249  51.756175  89.728528  40.998693
  12668.200  12668.200  0.500  0.782891  51.744909  89.706309  41.003193
  12668.501  12668.500  0.500  0.782681  51.732466  89.693933  41.006140
  12668.802  12668.800  0.500  0.782276  51.735368  89.688524  41.020293
  12669.096  12669.100  0.500  0.782096  51.728313  89.676981  41.022379
  12669.411  12669.400  0.500  0.781885  51.726466  89.669399  41.027567
  12669.698  12669.700  0.500  0.781860  51.724911  89.672859  41.030178
  12670.006  12670.000  0.500  0.782062  51.712792  89.659443  41.015752
  12670.286  12670.300  0.500  0.782200  51.708957  89.654337  41.007784
  12670.601  12670.600  0.500  0.782556  51.706398  89.641491  40.987299
  12670.887  12670.900  0.500  0.782868  51.700850  89.638484  40.973141
  12671.181  12671.200  0.500  0.783195  51.695712  89.630891  40.956291
  12671.475  12671.500  0.500  0.783408  51.697153  89.627395  40.945949
  12671.790  12671.800  0.500  0.783518  51.690127  89.612544  40.934671
  12672.091  12672.100  0.500  0.783629  51.685319  89.617911  40.932568
  12672.378  12672.400  0.500  0.783602  51.677897  89.595902  40.923628
  12672.679  12672.700  0.500  0.783539  51.672556  89.591098  40.924021
  12672.988  12673.000  0.500  0.783305  51.669923  89.589548  40.932865
  12673.310  12673.300  0.500  0.782794  51.663562  89.577099  40.948100
  12673.583  12673.600  0.500  0.782223  51.660079  89.574225  40.970175
  12673.905  12673.900  0.500  0.781528  51.660333  89.577703  41.000249
  12674.206  12674.200  0.500  0.780686  51.644796  89.550408  41.022301
  12674.507  12674.500  0.500  0.779813  51.648171  89.556023  41.060712
  12674.815  12674.800  0.500  0.778719  51.638579  89.544020  41.100124
  12675.095  12675.100  0.500  0.777855  51.639789  89.538154  41.132966
  12675.410  12675.400  0.500  0.776796  51.628485  89.524661  41.170350
  12675.698  12675.700  0.500  0.775809  51.619308  89.513554  41.205890
  12676.013  12676.000  0.500  0.774858  51.617933  89.506787  41.241952
  12676.300  12676.300  0.500  0.774120  51.614954  89.502712  41.270560
  12676.601  12676.600  0.500  0.773310  51.607627  89.489095  41.297708
  12676.909  12676.900  0.500  0.772653  51.600934  89.479648  41.320495
  12677.190  12677.200  0.500  0.772070  51.597980  89.470938  41.340539
  12677.505  12677.500  0.500  0.771509  51.592819  89.472191  41.364333
  12677.785  12677.800  0.500  0.770992  51.584210  89.454507  41.377550
  12678.108  12678.100  0.500  0.770684  51.583493  89.458279  41.392018
  12678.374  12678.400  0.500  0.770281  51.588640  89.458243  41.408682
  12678.703  12678.700  0.500  0.769909  51.573216  89.441387  41.416295
  12678.984  12679.000  0.500  0.769624  51.575987  89.441888  41.428343
  12679.278  12679.300  0.500  0.769420  51.570334  89.433960  41.433137
  12679.579  12679.600  0.500  0.769167  51.557705  89.413544  41.434130
  12679.888  12679.900  0.500  0.769058  51.557592  89.409942  41.436987
  12680.189  12680.200  0.500  0.768997  51.553841  89.401294  41.435502
  12680.490  12680.500  0.500  0.768814  51.542941  89.386081  41.436044
  12680.813  12680.800  0.500  0.768787  51.540741  89.379238  41.434005
  12681.079  12681.100  0.500  0.768850  51.536709  89.381168  41.432280
  12681.409  12681.400  0.500  0.768826  51.528577  89.364843  41.425688
  12681.703  12681.700  0.500  0.768842  51.529053  89.358959  41.422319
  12682.005  12682.000  0.500  0.768851  51.521228  89.357326  41.421190
  12682.299  12682.300  0.500  0.768928  51.528788  89.363057  41.420633
  12682.594  12682.600  0.500  0.769028  51.518742  89.352125  41.411435
  12682.811  12682.800  0.500  0.769034  51.508085  89.338997  41.405099
  12683.786  12683.790  0.500  0.769106  51.495039  89.310398  41.388860
  12684.768  12684.790  0.500  0.769056  51.481437  89.295619  41.384079
  12685.862  12685.810  0.500  0.769003  51.457531  89.256946  41.368366
  12686.851  12686.860  0.500  0.768954  51.447132  89.232425  41.359018
  12687.869  12687.920  0.500  0.769002  51.424062  89.198252  41.341190
  12689.048  12689.000  0.500  0.769002  51.415606  89.185784  41.335418
  12690.157  12690.100  0.500  0.769053  51.403152  89.172521  41.327157
  12691.267  12691.220  0.500  0.768991  51.386725  89.148189  41.318430
  12692.418  12692.360  0.500  0.769042  51.374356  89.124989  41.305600
  12693.570  12693.510  0.500  0.769216  51.357843  89.107689  41.290393
  12694.750  12694.690  0.500  0.769645  51.348464  89.083412  41.261435
  12695.938  12695.880  0.500  0.770000  51.335648  89.067507  41.239436
  12697.154  12697.100  0.500  0.770600  51.316380  89.038055  41.201059
  12698.377  12698.330  0.500  0.770979  51.300514  89.005705  41.170496
  12699.635  12699.580  0.500  0.771236  51.281426  88.984762  41.150221
  12700.887  12700.850  0.500  0.771298  51.264613  88.961103  41.136711
  12702.167  12702.140  0.500  0.770993  51.258011  88.949538  41.143905
  12703.475  12703.450  0.500  0.770311  51.233815  88.916710  41.156780
  12704.819  12704.780  0.500  0.768940  51.220187  88.894727  41.203084
  12706.156  12706.130  0.500  0.767340  51.205029  88.861273  41.253534
  12707.522  12707.500  0.500  0.765602  51.181783  88.830092  41.310794
  12708.916  12708.880  0.500  0.764146  51.161243  88.791694  41.353086
  12710.318  12710.290  0.500  0.763095  51.147545  88.771044  41.386941
  12711.740  12711.710  0.500  0.762600  51.130655  88.749190  41.397234
  12713.185  12713.150  0.500  0.762304  51.109518  88.718169  41.395040
  12714.644  12714.610  0.500  0.762203  51.094460  88.690099  41.386122
  12716.103  12716.090  0.500  0.762126  51.072728  88.660004  41.375270
  12717.604  12717.590  0.500  0.762135  51.052397  88.629514  41.360669
  12719.114  12719.110  0.500  0.762092  51.034726  88.599382  41.348347
  12720.680  12720.650  0.500  0.761938  51.012155  88.567983  41.340084
  12722.260  12722.210  0.500  0.761653  50.992297  88.533249  41.335656
  12723.791  12723.780  0.500  0.761358  50.971830  88.496084  41.330495
  12725.401  12725.380  0.500  0.761101  50.951152  88.476126  41.331793
  12727.018  12726.990  0.500  0.761064  50.931927  88.432657  41.313010
  12728.642  12728.630  0.500  0.760979  50.910613  88.411710  41.306741
  12730.288  12730.280  0.500  0.760886  50.884670  88.372268  41.292153
  12731.963  12731.950  0.500  0.760971  50.861601  88.333980  41.270724
  12733.646  12733.640  0.500  0.761160  50.823842  88.278268  41.236911
  12735.378  12735.350  0.500  0.761623  50.752731  88.152385  41.159075
  12737.118  12737.080  0.500  0.762129  50.122339  87.067039  40.631753
  12738.858  12738.830  0.500  0.762060  50.471857  87.675606  40.918556
  12740.613  12740.590  0.500  0.762088  50.761783  88.183982  41.154663
  12742.396  12742.380  0.500  0.761847  50.745370  88.162610  41.154596
  12744.188  12744.180  0.500  0.761533  50.725552  88.124014  41.149492
  12746.029  12746.010  0.500  0.761043  50.696624  88.084883  41.151413
  12747.850  12747.850  0.500  0.760538  50.674692  88.048911  41.155353
  12749.749  12749.710  0.500  0.759729  50.644511  88.004762  41.168012
  12751.599  12751.590  0.500  0.759043  50.627619  87.980431  41.184869
  12753.506  12753.490  0.500  0.758116  50.607018  87.940715  41.204492
  12755.428  12755.410  0.500  0.757131  50.581195  87.902502  41.227141
  12757.358  12757.350  0.500  0.756129  50.558025  87.864378  41.250607
  12759.317  12759.310  0.500  0.755233  50.529996  87.820932  41.267152
  12761.262  12761.280  0.500  0.754541  50.505974  87.787090  41.279802
  12763.300  12763.280  0.500  0.754060  50.479685  87.745197  41.279973
  12765.318  12765.290  0.500  0.753784  50.457299  87.704901  41.272409
  12767.336  12767.320  0.500  0.753530  50.433604  87.661853  41.262614
  12769.398  12769.380  0.500  0.753564  50.407216  87.626100  41.244364
  12771.438  12771.450  0.500  0.753389  50.382524  87.582008  41.230844
  12773.537  12773.540  0.500  0.753506  50.355919  87.553564  41.212621
  12775.664  12775.650  0.500  0.753483  50.325844  87.510802  41.193457
  12777.785  12777.780  0.500  0.753348  50.299551  87.460731  41.175432
  12779.936  12779.920  0.500  0.753489  50.275660  87.425971  41.153273
  12782.108  12782.090  0.500  0.753619  50.326418  87.520274  41.192293
  12784.274  12784.280  0.500  0.753812  50.367422  87.603510  41.223532
  12786.484  12786.480  0.500  0.754277  50.350077  87.572623  41.189833
  12788.715  12788.700  0.500  0.754607  50.326899  87.530297  41.156350
  12790.955  12790.950  0.500  0.755166  50.307816  87.497874  41.118117
  12793.210  12793.210  0.500  0.755469  50.276386  87.455660  41.085796
  12795.487  12795.490  0.500  0.755861  50.253722  87.419189  41.052605
  12797.779  12797.790  0.500  0.756120  50.223508  87.379392  41.023278
  12800.129  12800.110  0.500  0.756157  50.193308  87.333426  41.000153
  12802.473  12802.450  0.500  0.755980  50.170024  87.291734  40.987871
  12804.796  12804.800  0.500  0.755550  50.135723  87.236545  40.979558
  12807.163  12807.180  0.500  0.755089  50.111646  87.201406  40.981949
  12809.588  12809.570  0.500  0.754365  50.078440  87.154606  40.989628
  12811.999  12811.990  0.500  0.753481  50.049270  87.111279  41.005483
  12814.434  12814.420  0.500  0.752240  50.026710  87.071979  41.037865
  12816.876  12816.870  0.500  0.750850  49.991462  87.022969  41.071813
  12819.333  12819.350  0.500  0.749519  49.963932  86.974415  41.103566
  12821.835  12821.840  0.500  0.748056  49.934961  86.919421  41.137713
  12824.380  12824.350  0.500  0.746596  49.902462  86.868686  41.173791
  12826.898  12826.870  0.500  0.745424  49.821011  86.739031  41.160548
  12829.424  12829.420  0.500  0.744252  49.844031  86.780332  41.228427
  12831.994  12831.990  0.500  0.743450  49.809854  86.730505  41.237830
  12834.565  12834.570  0.500  0.742676  49.761190  86.653142  41.232924
  12837.216  12837.180  0.500  0.742056  49.743517  86.625620  41.245392
  12839.796  12839.800  0.500  0.741885  49.703050  86.569318  41.225651
  12842.464  12842.450  0.500  0.741752  49.673863  86.531501  41.213128
  12845.126  12845.110  0.500  0.741630  49.643887  86.486082  41.196519
  12847.825  12847.790  0.500  0.741693  49.598118  86.406856  41.156171
  12850.496  12850.490  0.500  0.741910  49.552249  86.332148  41.111653
  12853.211  12853.210  0.500  0.742082  49.541253  86.317253  41.097527
  12855.971  12855.950  0.500  0.742590  49.508127  86.265861  41.052178
  12858.711  12858.700  0.500  0.743026  49.483532  86.227704  41.016141
  12861.487  12861.480  0.500  0.743542  49.451080  86.172504  40.968720
  12864.272  12864.270  0.500  0.744018  49.415122  86.122103  40.925282
  12867.102  12867.090  0.500  0.744465  49.380332  86.067668  40.881130
  12869.933  12869.920  0.500  0.744725  49.340025  86.002626  40.839637
  12872.794  12872.770  0.500  0.744864  49.293554  85.925293  40.797212
  12875.642  12875.650  0.500  0.744816  49.225107  85.817068  40.747798
  12878.549  12878.540  0.500  0.744693  49.191335  85.772380  40.731614
  12881.472  12881.450  0.500  0.744304  49.211528  85.810045  40.765345
  12884.389  12884.370  0.500  0.743741  49.172945  85.748651  40.759109
  12887.322  12887.320  0.500  0.743131  49.135969  85.695218  40.758563
  12890.299  12890.290  0.500  0.742298  49.100519  85.634496  40.763639
  12893.278  12893.270  0.500  0.741389  49.066557  85.573871  40.771818
  12896.302  12896.280  0.500  0.740460  49.026767  85.517327  40.782737
  12899.299  12899.300  0.500  0.739464  48.954546  85.404582  40.769580
  12902.362  12902.350  0.500  0.738459  48.953958  85.410404  40.813348
  12905.434  12905.410  0.500  0.737457  48.917241  85.342910  40.821956
  12908.500  12908.490  0.500  0.736511  48.873883  85.272937  40.827090
  12911.574  12911.590  0.500  0.735597  48.826086  85.203462  40.831148
  12914.731  12914.710  0.500  0.734773  48.533350  84.694696  40.620808
  12917.874  12917.850  0.500  0.733859  48.689194  84.976732  40.793338
  12921.012  12921.000  0.500  0.733161  48.735738  85.064095  40.863761
  12924.180  12924.180  0.500  0.732421  48.688261  84.978478  40.852868
  12927.401  12927.370  0.500  0.731778  48.473000  84.619395  40.706396
  12930.616  12930.590  0.500  0.731242  48.586799  84.827261  40.828273
  12933.818  12933.820  0.500  0.730863  48.586513  84.827219  40.843731
  12937.066  12937.070  0.500  0.730426  48.527920  84.735496  40.817423
  12940.359  12940.350  0.500  0.730198  48.116921  84.022849  40.483339
  12943.631  12943.640  0.500  0.730059  48.468963  84.642798  40.787729
  12946.972  12946.950  0.500  0.729904  48.403507  84.532108  40.740689
  12950.292  12950.270  0.500  0.729844  48.364944  84.470748  40.713567
  12953.650  12953.620  0.500  0.729961  47.955640  83.771738  40.371932
  12957.003  12956.990  0.500  0.729989  48.314438  84.400198  40.673669
  12960.387  12960.370  0.500  0.730120  48.245482  84.290628  40.615556
  12963.788  12963.780  0.500  0.730189  48.237512  84.280163  40.607704
  12967.219  12967.200  0.500  0.730164  48.195219  84.215502  40.577571
  12970.653  12970.650  0.500  0.730169  48.151061  84.148430  40.545027
  12974.132  12974.110  0.500  0.730049  48.082735  84.041360  40.498305
  12977.613  12977.590  0.500  0.729738  48.068218  84.015544  40.498450
  12981.081  12981.090  0.500  0.729303  48.032638  83.961840  40.490174
  12984.632  12984.610  0.500  0.728880  47.986248  83.900955  40.477923
  12988.178  12988.150  0.500  0.728087  47.946258  83.820221  40.471083
  12991.711  12991.700  0.500  0.727514  47.837538  83.647744  40.410941
  12995.290  12995.280  0.500  0.726567  47.856551  83.687481  40.468448
  12998.901  12998.880  0.500  0.725531  47.823170  83.636284  40.485587
  13002.484  13002.490  0.500  0.724585  47.783036  83.569208  40.491407
  13006.150  13006.120  0.500  0.723610  47.740742  83.507109  40.500814
  13009.804  13009.780  0.500  0.722609  47.696735  83.440512  40.509013
  13013.460  13013.450  0.500  0.721605  47.650772  83.361245  40.511200
  13017.162  13017.140  0.500  0.720654  47.608030  83.293751  40.516898
  13020.873  13020.850  0.500  0.719785  47.569101  83.232045  40.522099
  13024.602  13024.580  0.500  0.719015  47.523909  83.167527  40.521893
  13028.340  13028.320  0.500  0.718391  47.477685  83.095339  40.511975
  13032.110  13032.090  0.500  0.717713  47.430646  83.020637  40.503016
  13035.882  13035.880  0.500  0.717136  47.387606  82.953449  40.493576
  13039.701  13039.680  0.500  0.716780  47.340731  82.878078  40.471212
  13043.530  13043.510  0.500  0.716349  47.300370  82.813002  40.456846
  13047.360  13047.350  0.500  0.716045  47.241717  82.724005  40.425658
  13051.253  13051.210  0.500  0.715731  47.189143  82.630707  40.392752
  13055.133  13055.090  0.500  0.715544  47.162958  82.595475  40.383061
  13059.008  13058.990  0.500  0.715334  47.121421  82.523914  40.356580
  13062.952  13062.910  0.500  0.715154  47.066699  82.443180  40.324334
  13066.869  13066.850  0.500  0.714906  47.024281  82.378537  40.302732
  13070.841  13070.810  0.500  0.714699  46.958392  82.269986  40.257925
  13074.792  13074.780  0.500  0.714319  46.918706  82.213951  40.245799
  13078.798  13078.780  0.500  0.713901  46.870774  82.135052  40.224021
  13082.792  13082.790  0.500  0.713641  46.834162  82.084667  40.209766
  13086.870  13086.830  0.500  0.713190  46.789652  82.009308  40.190996
  13090.884  13090.880  0.500  0.712697  46.741162  81.927747  40.170810
  13094.975  13094.950  0.500  0.712188  46.646099  81.775836  40.116744
  13099.076  13099.040  0.500  0.711640  46.642499  81.778516  40.140064
  13103.165  13103.150  0.500  0.710902  46.581986  81.675375  40.119027
  13107.301  13107.280  0.500  0.710264  46.501707  81.548136  40.082090
  13111.470  13111.430  0.500  0.709485  46.502616  81.554000  40.116216
  13115.589  13115.590  0.500  0.708855  46.446766  81.468551  40.099416
  13119.816  13119.780  0.500  0.707953  46.386989  81.361542  40.082898
  13124.000  13123.980  0.500  0.707266  46.353692  81.317366  40.088670
  13128.232  13128.210  0.500  0.706317  46.299517  81.235164  40.086176
  13132.497  13132.450  0.500  0.705414  46.227550  81.112120  40.061588
  13136.735  13136.710  0.500  0.704678  46.198327  81.064887  40.067772
  13141.013  13140.990  0.500  0.703864  46.154228  80.992976  40.064811
  13145.347  13145.290  0.500  0.703184  46.102228  80.915558  40.053728
  13149.623  13149.610  0.500  0.702520  46.049578  80.826958  40.036450
  13153.986  13153.950  0.500  0.701769  45.995595  80.733706  40.020295
  13158.328  13158.310  0.500  0.701236  45.945063  80.663011  40.006571
  13162.696  13162.690  0.500  0.700583  45.893578  80.586062  39.994528
  13167.098  13167.080  0.500  0.700027  45.835284  80.490457  39.969295
  13171.524  13171.500  0.500  0.699501  45.791243  80.425108  39.957878
  13175.977  13175.930  0.500  0.699136  45.735126  80.323272  39.921840
  13180.441  13180.380  0.500  0.698779  45.688166  80.253941  39.901629
  13184.854  13184.850  0.500  0.698304  45.633426  80.170937  39.879282
  13189.376  13189.340  0.500  0.697895  45.586279  80.091111  39.855878
  13193.879  13193.850  0.500  0.697451  45.527525  79.998020  39.827240
  13198.423  13198.380  0.500  0.697020  45.467299  79.906433  39.798775
  13202.955  13202.930  0.500  0.696628  45.413750  79.814926  39.768805
  13207.513  13207.500  0.500  0.696122  45.364331  79.741209  39.752174
  13212.120  13212.080  0.500  0.695601  45.296418  79.633670  39.719268
  13216.745  13216.690  0.500  0.695220  45.247879  79.554454  39.694867
  13221.343  13221.310  0.500  0.694576  45.185035  79.448133  39.667349
  13225.998  13225.960  0.500  0.693982  45.090286  79.293063  39.613467
  13230.649  13230.620  0.500  0.693342  45.071356  79.269297  39.626928
  13235.341  13235.300  0.500  0.692636  45.010883  79.175210  39.607846
  13240.028  13240.000  0.500  0.691983  44.957617  79.091209  39.591663
  13244.758  13244.720  0.500  0.691288  44.893384  78.987062  39.567040
  13249.513  13249.460  0.500  0.690444  44.832538  78.880379  39.546958
  13254.257  13254.210  0.500  0.689705  44.758326  78.763064  39.517316
  13259.004  13258.990  0.500  0.688821  44.688969  78.640286  39.490605
  13263.824  13263.790  0.500  0.688207  44.588686  78.470486  39.429558
  13268.625  13268.600  0.500  0.687398  44.454842  78.248135  39.349634
  13273.459  13273.430  0.500  0.686771  44.071239  77.586048  39.041148
  13278.336  13278.290  0.500  0.685941  43.894547  77.279965  38.919447
  13283.216  13283.160  0.500  0.685240  43.857398  77.226969  38.920028
  13288.100  13288.050  0.500  0.684557  43.708559  76.967179  38.815598
  13292.995  13292.960  0.500  0.683948  43.686736  76.939591  38.825318
  13297.933  13297.890  0.500  0.683283  43.639632  76.867844  38.814908
  13302.889  13302.830  0.500  0.682752  43.535317  76.688579  38.744962
  13307.842  13307.800  0.500  0.682140  43.519934  76.678362  38.763503
  13312.829  13312.790  0.500  0.681554  43.485887  76.626272  38.759905
  13317.813  13317.790  0.500  0.681047  43.449040  76.563341  38.747706
  13322.854  13322.820  0.500  0.680453  43.367371  76.422980  38.699647
  13327.907  13327.860  0.500  0.679912  43.275830  76.274868  38.645542
  13332.979  13332.920  0.500  0.679372  43.244476  76.234472  38.645926
  13338.056  13338.000  0.500  0.678888  43.208516  76.177426  38.635727
  13343.143  13343.100  0.500  0.678299  43.170773  76.120107  38.629384
  13348.235  13348.220  0.500  0.677622  43.133729  76.055054  38.622529
  13353.432  13353.360  0.500  0.677133  43.092839  75.994296  38.610524
  13358.556  13358.520  0.500  0.676580  43.014938  75.872018  38.569726
  13363.753  13363.700  0.500  0.676004  42.978252  75.818018  38.564481
  13368.939  13368.890  0.500  0.675348  42.906348  75.695530  38.527438
  13374.152  13374.110  0.500  0.674739  42.836121  75.583356  38.493795
  13379.385  13379.340  0.500  0.674038  42.793147  75.514409  38.485637
  13384.630  13384.590  0.500  0.673305  42.733203  75.415869  38.463610
  13389.887  13389.860  0.500  0.672593  42.680637  75.329362  38.446842
  13395.203  13395.150  0.500  0.671969  42.623524  75.245737  38.428144
  13400.492  13400.460  0.500  0.671233  42.699117  75.385182  38.527697
  13405.848  13405.790  0.500  0.670500  42.631152  75.275498  38.499877
  13411.192  13411.140  0.500  0.669740  42.614686  75.252051  38.517136
  13416.549  13416.510  0.500  0.669052  42.559714  75.166712  38.499937
  13421.997  13421.890  0.500  0.668342  42.495829  75.062548  38.473888
  13427.268  13427.300  0.500  0.667640  42.427223  74.950002  38.443192
  13432.716  13432.720  0.500  0.666924  42.364430  74.844174  38.416406
  13438.169  13438.170  0.500  0.666225  42.311965  74.763449  38.401784
  13443.626  13443.630  0.500  0.665553  42.242986  74.653531  38.371119
  13449.120  13449.110  0.500  0.664780  42.180706  74.550818  38.347959
  13454.634  13454.610  0.500  0.664299  42.131377  74.473829  38.326794
  13460.168  13460.130  0.500  0.663573  42.072260  74.378841  38.305691
  13465.707  13465.670  0.500  0.662882  42.012035  74.276986  38.279682
  13471.250  13471.220  0.500  0.662302  41.908742  74.109752  38.215665
  13476.838  13476.800  0.500  0.661733  41.879506  74.061456  38.212483
  13482.422  13482.400  0.500  0.661101  41.523082  73.436047  37.913746
  13488.051  13488.010  0.500  0.660529  41.797531  73.934234  38.192816
  13493.685  13493.650  0.500  0.659816  41.704402  73.784760  38.142770
  13499.339  13499.300  0.500  0.659315  41.640715  73.676151  38.105708
  13505.014  13504.970  0.500  0.658680  41.599948  73.615681  38.098636
  13510.670  13510.660  0.500  0.658042  41.539290  73.514013  38.070286
